phi[deg] B[T]
0.00 0.89617
0.50 0.89598
1.00 0.89588
1.50 0.89583
2.00 0.89580
2.50 0.89580
3.00 0.89560
3.50 0.89530
4.00 0.89502
4.50 0.89476
5.00 0.89459
5.50 0.89449
6.00 0.89454
6.50 0.89441
7.00 0.89426
7.50 0.89412
8.00 0.89400
8.50 0.89390
9.00 0.89416
9.50 0.89466
10.00 0.89518
10.50 0.89574
11.00 0.89633
11.50 0.89695
12.00 0.89758
12.50 0.89827
13.00 0.89927
13.50 0.90038
14.00 0.90169
14.50 0.90300
15.00 0.90423
15.50 0.90547
16.00 0.90672
16.50 0.90799
17.00 0.90936
17.50 0.91088
18.00 0.91242
18.50 0.91331
19.00 0.91406
19.50 0.91482
20.00 0.91558
20.50 0.91635
21.00 0.91716
21.50 0.91800
22.00 0.91767
22.50 0.91663
23.00 0.91560
23.50 0.91456
24.00 0.91351
24.50 0.91247
25.00 0.91200
25.50 0.90933
26.00 0.90645
26.50 0.90378
27.00 0.90111
27.50 0.89843
28.00 0.89575
28.50 0.89306
29.00 0.88690
29.50 0.87958
30.00 0.87226
30.50 0.86503
31.00 0.85894
31.50 0.85283
32.00 0.84670
32.50 0.83843
33.00 0.82966
33.50 0.82085
34.00 0.80941
34.50 0.79744
35.00 0.78543
35.50 0.77340
36.00 0.76204
36.50 0.75202
37.00 0.73829
37.50 0.72316
38.00 0.70774
38.50 0.69226
39.00 0.67672
39.50 0.66111
40.00 0.64408
40.50 0.62441
41.00 0.60470
41.50 0.58493
42.00 0.56637
42.50 0.54789
43.00 0.52690
43.50 0.50583
44.00 0.48543
44.50 0.46500
45.00 0.44454
45.50 0.42247
46.00 0.40038
46.50 0.37826
47.00 0.35849
47.50 0.33919
48.00 0.32029
48.50 0.30183
49.00 0.28341
49.50 0.26499
50.00 0.24778
50.50 0.23236
51.00 0.21698
51.50 0.20161
52.00 0.18627
52.50 0.17204
53.00 0.15947
53.50 0.14909
54.00 0.13873
54.50 0.12840
55.00 0.11810
55.50 0.10782
56.00 0.09758
56.50 0.08848
57.00 0.08215
57.50 0.07606
58.00 0.06999
58.50 0.06394
59.00 0.05791
59.50 0.05190
60.00 0.04590
60.50 0.04100
61.00 0.03806
61.50 0.03512
62.00 0.03213
62.50 0.02913
63.00 0.02614
63.50 0.02315
64.00 0.02018
64.50 0.01790
65.00 0.01676
65.50 0.01563
66.00 0.01451
66.50 0.01339
67.00 0.01227
67.50 0.01116
68.00 0.00993
68.50 0.00859
69.00 0.00725
69.50 0.00597
70.00 0.00561
70.50 0.00526
71.00 0.00490
71.50 0.00455
72.00 0.00421
72.50 0.00386
73.00 0.00352
73.50 0.00318
74.00 0.00287
74.50 0.00258
75.00 0.00230
75.50 0.00224
76.00 0.00216
76.50 0.00206
77.00 0.00196
77.50 0.00186
78.00 0.00176
78.50 0.00166
79.00 0.00156
79.50 0.00146
80.00 0.00136
80.50 0.00126
81.00 0.00116
81.50 0.00109
82.00 0.00105
82.50 0.00101
83.00 0.00098
83.50 0.00094
84.00 0.00090
84.50 0.00087
85.00 0.00083
85.50 0.00080
86.00 0.00079
86.50 0.00077
87.00 0.00076
87.50 0.00075
88.00 0.00074
88.50 0.00073
89.00 0.00071
89.50 0.00070
90.00 0.00069
90.00 0.00069
90.50 0.00070
91.00 0.00071
91.50 0.00073
92.00 0.00074
92.50 0.00075
93.00 0.00076
93.50 0.00077
94.00 0.00079
94.50 0.00080
95.00 0.00083
95.50 0.00087
96.00 0.00090
96.50 0.00094
97.00 0.00098
97.50 0.00101
98.00 0.00105
98.50 0.00109
99.00 0.00116
99.50 0.00126
100.00 0.00136
100.50 0.00146
101.00 0.00156
101.50 0.00166
102.00 0.00176
102.50 0.00186
103.00 0.00196
103.50 0.00206
104.00 0.00216
104.50 0.00224
105.00 0.00230
105.50 0.00258
106.00 0.00287
106.50 0.00318
107.00 0.00352
107.50 0.00386
108.00 0.00421
108.50 0.00455
109.00 0.00490
109.50 0.00526
110.00 0.00561
110.50 0.00597
111.00 0.00725
111.50 0.00859
112.00 0.00993
112.50 0.01116
113.00 0.01227
113.50 0.01339
114.00 0.01451
114.50 0.01563
115.00 0.01676
115.50 0.01790
116.00 0.02018
116.50 0.02315
117.00 0.02614
117.50 0.02913
118.00 0.03213
118.50 0.03512
119.00 0.03806
119.50 0.04100
120.00 0.04590
120.50 0.05190
121.00 0.05791
121.50 0.06394
122.00 0.06999
122.50 0.07606
123.00 0.08215
123.50 0.08848
124.00 0.09758
124.50 0.10782
125.00 0.11810
125.50 0.12840
126.00 0.13873
126.50 0.14909
127.00 0.15947
127.50 0.17204
128.00 0.18627
128.50 0.20161
129.00 0.21698
129.50 0.23236
130.00 0.24778
130.50 0.26499
131.00 0.28341
131.50 0.30183
132.00 0.32029
132.50 0.33919
133.00 0.35849
133.50 0.37826
134.00 0.40038
134.50 0.42247
135.00 0.44454
135.50 0.46500
136.00 0.48543
136.50 0.50583
137.00 0.52690
137.50 0.54789
138.00 0.56637
138.50 0.58493
139.00 0.60470
139.50 0.62441
140.00 0.64408
140.50 0.66111
141.00 0.67672
141.50 0.69226
142.00 0.70774
142.50 0.72316
143.00 0.73829
143.50 0.75202
144.00 0.76204
144.50 0.77340
145.00 0.78543
145.50 0.79744
146.00 0.80941
146.50 0.82085
147.00 0.82966
147.50 0.83843
148.00 0.84670
148.50 0.85283
149.00 0.85894
149.50 0.86503
150.00 0.87226
150.50 0.87958
151.00 0.88690
151.50 0.89306
152.00 0.89575
152.50 0.89843
153.00 0.90111
153.50 0.90378
154.00 0.90645
154.50 0.90933
155.00 0.91200
155.50 0.91247
156.00 0.91351
156.50 0.91456
157.00 0.91560
157.50 0.91663
158.00 0.91767
158.50 0.91800
159.00 0.91716
159.50 0.91635
160.00 0.91558
160.50 0.91482
161.00 0.91406
161.50 0.91331
162.00 0.91242
162.50 0.91088
163.00 0.90936
163.50 0.90799
164.00 0.90672
164.50 0.90547
165.00 0.90423
165.50 0.90300
166.00 0.90169
166.50 0.90038
167.00 0.89927
167.50 0.89827
168.00 0.89758
168.50 0.89695
169.00 0.89633
169.50 0.89574
170.00 0.89518
170.50 0.89466
171.00 0.89416
171.50 0.89390
172.00 0.89400
172.50 0.89412
173.00 0.89426
173.50 0.89441
174.00 0.89454
174.50 0.89449
175.00 0.89459
175.50 0.89476
176.00 0.89502
176.50 0.89530
177.00 0.89560
177.50 0.89580
178.00 0.89580
178.50 0.89583
179.00 0.89588
179.50 0.89598
180.00 0.89617
180.00 0.89617
180.50 0.89598
181.00 0.89588
181.50 0.89583
182.00 0.89580
182.50 0.89580
183.00 0.89560
183.50 0.89530
184.00 0.89502
184.50 0.89476
185.00 0.89459
185.50 0.89449
186.00 0.89454
186.50 0.89441
187.00 0.89426
187.50 0.89412
188.00 0.89400
188.50 0.89390
189.00 0.89416
189.50 0.89466
190.00 0.89518
190.50 0.89574
191.00 0.89633
191.50 0.89695
192.00 0.89758
192.50 0.89827
193.00 0.89927
193.50 0.90038
194.00 0.90169
194.50 0.90300
195.00 0.90423
195.50 0.90547
196.00 0.90672
196.50 0.90799
197.00 0.90936
197.50 0.91088
198.00 0.91242
198.50 0.91331
199.00 0.91406
199.50 0.91482
200.00 0.91558
200.50 0.91635
201.00 0.91716
201.50 0.91800
202.00 0.91767
202.50 0.91663
203.00 0.91560
203.50 0.91456
204.00 0.91351
204.50 0.91247
205.00 0.91200
205.50 0.90933
206.00 0.90645
206.50 0.90378
207.00 0.90111
207.50 0.89843
208.00 0.89575
208.50 0.89306
209.00 0.88690
209.50 0.87958
210.00 0.87226
210.50 0.86503
211.00 0.85894
211.50 0.85283
212.00 0.84670
212.50 0.83843
213.00 0.82966
213.50 0.82085
214.00 0.80941
214.50 0.79744
215.00 0.78543
215.50 0.77340
216.00 0.76204
216.50 0.75202
217.00 0.73829
217.50 0.72316
218.00 0.70774
218.50 0.69226
219.00 0.67672
219.50 0.66111
220.00 0.64408
220.50 0.62441
221.00 0.60470
221.50 0.58493
222.00 0.56637
222.50 0.54789
223.00 0.52690
223.50 0.50583
224.00 0.48543
224.50 0.46500
225.00 0.44454
225.50 0.42247
226.00 0.40038
226.50 0.37826
227.00 0.35849
227.50 0.33919
228.00 0.32029
228.50 0.30183
229.00 0.28341
229.50 0.26499
230.00 0.24778
230.50 0.23236
231.00 0.21698
231.50 0.20161
232.00 0.18627
232.50 0.17204
233.00 0.15947
233.50 0.14909
234.00 0.13873
234.50 0.12840
235.00 0.11810
235.50 0.10782
236.00 0.09758
236.50 0.08848
237.00 0.08215
237.50 0.07606
238.00 0.06999
238.50 0.06394
239.00 0.05791
239.50 0.05190
240.00 0.04590
240.50 0.04100
241.00 0.03806
241.50 0.03512
242.00 0.03213
242.50 0.02913
243.00 0.02614
243.50 0.02315
244.00 0.02018
244.50 0.01790
245.00 0.01676
245.50 0.01563
246.00 0.01451
246.50 0.01339
247.00 0.01227
247.50 0.01116
248.00 0.00993
248.50 0.00859
249.00 0.00725
249.50 0.00597
250.00 0.00561
250.50 0.00526
251.00 0.00490
251.50 0.00455
252.00 0.00421
252.50 0.00386
253.00 0.00352
253.50 0.00318
254.00 0.00287
254.50 0.00258
255.00 0.00230
255.50 0.00224
256.00 0.00216
256.50 0.00206
257.00 0.00196
257.50 0.00186
258.00 0.00176
258.50 0.00166
259.00 0.00156
259.50 0.00146
260.00 0.00136
260.50 0.00126
261.00 0.00116
261.50 0.00109
262.00 0.00105
262.50 0.00101
263.00 0.00098
263.50 0.00094
264.00 0.00090
264.50 0.00087
265.00 0.00083
265.50 0.00080
266.00 0.00079
266.50 0.00077
267.00 0.00076
267.50 0.00075
268.00 0.00074
268.50 0.00073
269.00 0.00071
269.50 0.00070
270.00 0.00069
270.00 0.00069
270.50 0.00070
271.00 0.00071
271.50 0.00073
272.00 0.00074
272.50 0.00075
273.00 0.00076
273.50 0.00077
274.00 0.00079
274.50 0.00080
275.00 0.00083
275.50 0.00087
276.00 0.00090
276.50 0.00094
277.00 0.00098
277.50 0.00101
278.00 0.00105
278.50 0.00109
279.00 0.00116
279.50 0.00126
280.00 0.00136
280.50 0.00146
281.00 0.00156
281.50 0.00166
282.00 0.00176
282.50 0.00186
283.00 0.00196
283.50 0.00206
284.00 0.00216
284.50 0.00224
285.00 0.00230
285.50 0.00258
286.00 0.00287
286.50 0.00318
287.00 0.00352
287.50 0.00386
288.00 0.00421
288.50 0.00455
289.00 0.00490
289.50 0.00526
290.00 0.00561
290.50 0.00597
291.00 0.00725
291.50 0.00859
292.00 0.00993
292.50 0.01116
293.00 0.01227
293.50 0.01339
294.00 0.01451
294.50 0.01563
295.00 0.01676
295.50 0.01790
296.00 0.02018
296.50 0.02315
297.00 0.02614
297.50 0.02913
298.00 0.03213
298.50 0.03512
299.00 0.03806
299.50 0.04100
300.00 0.04590
300.50 0.05190
301.00 0.05791
301.50 0.06394
302.00 0.06999
302.50 0.07606
303.00 0.08215
303.50 0.08848
304.00 0.09758
304.50 0.10782
305.00 0.11810
305.50 0.12840
306.00 0.13873
306.50 0.14909
307.00 0.15947
307.50 0.17204
308.00 0.18627
308.50 0.20161
309.00 0.21698
309.50 0.23236
310.00 0.24778
310.50 0.26499
311.00 0.28341
311.50 0.30183
312.00 0.32029
312.50 0.33919
313.00 0.35849
313.50 0.37826
314.00 0.40038
314.50 0.42247
315.00 0.44454
315.50 0.46500
316.00 0.48543
316.50 0.50583
317.00 0.52690
317.50 0.54789
318.00 0.56637
318.50 0.58493
319.00 0.60470
319.50 0.62441
320.00 0.64408
320.50 0.66111
321.00 0.67672
321.50 0.69226
322.00 0.70774
322.50 0.72316
323.00 0.73829
323.50 0.75202
324.00 0.76204
324.50 0.77340
325.00 0.78543
325.50 0.79744
326.00 0.80941
326.50 0.82085
327.00 0.82966
327.50 0.83843
328.00 0.84670
328.50 0.85283
329.00 0.85894
329.50 0.86503
330.00 0.87226
330.50 0.87958
331.00 0.88690
331.50 0.89306
332.00 0.89575
332.50 0.89843
333.00 0.90111
333.50 0.90378
334.00 0.90645
334.50 0.90933
335.00 0.91200
335.50 0.91247
336.00 0.91351
336.50 0.91456
337.00 0.91560
337.50 0.91663
338.00 0.91767
338.50 0.91800
339.00 0.91716
339.50 0.91635
340.00 0.91558
340.50 0.91482
341.00 0.91406
341.50 0.91331
342.00 0.91242
342.50 0.91088
343.00 0.90936
343.50 0.90799
344.00 0.90672
344.50 0.90547
345.00 0.90423
345.50 0.90300
346.00 0.90169
346.50 0.90038
347.00 0.89927
347.50 0.89827
348.00 0.89758
348.50 0.89695
349.00 0.89633
349.50 0.89574
350.00 0.89518
350.50 0.89466
351.00 0.89416
351.50 0.89390
352.00 0.89400
352.50 0.89412
353.00 0.89426
353.50 0.89441
354.00 0.89454
354.50 0.89449
355.00 0.89459
355.50 0.89476
356.00 0.89502
356.50 0.89530
357.00 0.89560
357.50 0.89580
358.00 0.89580
358.50 0.89583
359.00 0.89588
359.50 0.89598
360.00 0.89617
