phi[deg] B[T]
0.00 0.98455
0.50 0.98438
1.00 0.98427
1.50 0.98420
2.00 0.98416
2.50 0.98413
3.00 0.98392
3.50 0.98360
4.00 0.98331
4.50 0.98304
5.00 0.98285
5.50 0.98274
6.00 0.98292
6.50 0.98280
7.00 0.98261
7.50 0.98243
8.00 0.98227
8.50 0.98212
9.00 0.98243
9.50 0.98306
10.00 0.98370
10.50 0.98433
11.00 0.98494
11.50 0.98555
12.00 0.98618
12.50 0.98688
13.00 0.98795
13.50 0.98914
14.00 0.99056
14.50 0.99197
15.00 0.99332
15.50 0.99466
16.00 0.99602
16.50 0.99738
17.00 0.99887
17.50 1.00054
18.00 1.00221
18.50 1.00332
19.00 1.00429
19.50 1.00527
20.00 1.00625
20.50 1.00722
21.00 1.00828
21.50 1.00939
22.00 1.00927
22.50 1.00839
23.00 1.00750
23.50 1.00660
24.00 1.00569
24.50 1.00478
25.00 1.00460
25.50 1.00200
26.00 0.99917
26.50 0.99652
27.00 0.99385
27.50 0.99116
28.00 0.98846
28.50 0.98575
29.00 0.97881
29.50 0.97048
30.00 0.96212
30.50 0.95386
31.00 0.94677
31.50 0.93964
32.00 0.93249
32.50 0.92290
33.00 0.91271
33.50 0.90247
34.00 0.88894
34.50 0.87474
35.00 0.86049
35.50 0.84619
36.00 0.83256
36.50 0.82025
37.00 0.80383
37.50 0.78608
38.00 0.76818
38.50 0.75022
39.00 0.73218
39.50 0.71407
40.00 0.69457
40.50 0.67249
41.00 0.65036
41.50 0.62817
42.00 0.60732
42.50 0.58656
43.00 0.56362
43.50 0.54063
44.00 0.51831
44.50 0.49597
45.00 0.47358
45.50 0.45008
46.00 0.42655
46.50 0.40299
47.00 0.38170
47.50 0.36099
48.00 0.34089
48.50 0.32131
49.00 0.30177
49.50 0.28224
50.00 0.26400
50.50 0.24772
51.00 0.23146
51.50 0.21522
52.00 0.19900
52.50 0.18392
53.00 0.17059
53.50 0.15956
54.00 0.14856
54.50 0.13758
55.00 0.12663
55.50 0.11569
56.00 0.10478
56.50 0.09505
57.00 0.08825
57.50 0.08172
58.00 0.07520
58.50 0.06870
59.00 0.06220
59.50 0.05573
60.00 0.04927
60.50 0.04395
61.00 0.04067
61.50 0.03740
62.00 0.03414
62.50 0.03088
63.00 0.02762
63.50 0.02437
64.00 0.02113
64.50 0.01863
65.00 0.01733
65.50 0.01604
66.00 0.01475
66.50 0.01346
67.00 0.01217
67.50 0.01089
68.00 0.00956
68.50 0.00818
69.00 0.00681
69.50 0.00549
70.00 0.00511
70.50 0.00472
71.00 0.00434
71.50 0.00396
72.00 0.00358
72.50 0.00320
73.00 0.00282
73.50 0.00244
74.00 0.00206
74.50 0.00169
75.00 0.00132
75.50 0.00119
76.00 0.00111
76.50 0.00103
77.00 0.00094
77.50 0.00086
78.00 0.00077
78.50 0.00069
79.00 0.00060
79.50 0.00052
80.00 0.00043
80.50 0.00035
81.00 0.00026
81.50 0.00020
82.00 0.00019
82.50 0.00017
83.00 0.00015
83.50 0.00013
84.00 0.00012
84.50 0.00010
85.00 0.00008
85.50 0.00007
86.00 0.00006
86.50 0.00006
87.00 0.00006
87.50 0.00007
88.00 0.00007
88.50 0.00007
89.00 0.00007
89.50 0.00007
90.00 0.00007
90.00 0.00007
90.50 0.00007
91.00 0.00007
91.50 0.00007
92.00 0.00007
92.50 0.00007
93.00 0.00006
93.50 0.00006
94.00 0.00006
94.50 0.00007
95.00 0.00008
95.50 0.00010
96.00 0.00012
96.50 0.00013
97.00 0.00015
97.50 0.00017
98.00 0.00019
98.50 0.00020
99.00 0.00026
99.50 0.00035
100.00 0.00043
100.50 0.00052
101.00 0.00060
101.50 0.00069
102.00 0.00077
102.50 0.00086
103.00 0.00094
103.50 0.00103
104.00 0.00111
104.50 0.00119
105.00 0.00132
105.50 0.00169
106.00 0.00206
106.50 0.00244
107.00 0.00282
107.50 0.00320
108.00 0.00358
108.50 0.00396
109.00 0.00434
109.50 0.00472
110.00 0.00511
110.50 0.00549
111.00 0.00681
111.50 0.00818
112.00 0.00956
112.50 0.01089
113.00 0.01217
113.50 0.01346
114.00 0.01475
114.50 0.01604
115.00 0.01733
115.50 0.01863
116.00 0.02113
116.50 0.02437
117.00 0.02762
117.50 0.03088
118.00 0.03414
118.50 0.03740
119.00 0.04067
119.50 0.04395
120.00 0.04927
120.50 0.05573
121.00 0.06220
121.50 0.06870
122.00 0.07520
122.50 0.08172
123.00 0.08825
123.50 0.09505
124.00 0.10478
124.50 0.11569
125.00 0.12663
125.50 0.13758
126.00 0.14856
126.50 0.15956
127.00 0.17059
127.50 0.18392
128.00 0.19900
128.50 0.21522
129.00 0.23146
129.50 0.24772
130.00 0.26400
130.50 0.28224
131.00 0.30177
131.50 0.32131
132.00 0.34089
132.50 0.36099
133.00 0.38170
133.50 0.40299
134.00 0.42655
134.50 0.45008
135.00 0.47358
135.50 0.49597
136.00 0.51831
136.50 0.54063
137.00 0.56362
137.50 0.58656
138.00 0.60732
138.50 0.62817
139.00 0.65036
139.50 0.67249
140.00 0.69457
140.50 0.71407
141.00 0.73218
141.50 0.75022
142.00 0.76818
142.50 0.78608
143.00 0.80383
143.50 0.82025
144.00 0.83256
144.50 0.84619
145.00 0.86049
145.50 0.87474
146.00 0.88894
146.50 0.90247
147.00 0.91271
147.50 0.92290
148.00 0.93249
148.50 0.93964
149.00 0.94677
149.50 0.95386
150.00 0.96212
150.50 0.97048
151.00 0.97881
151.50 0.98575
152.00 0.98846
152.50 0.99116
153.00 0.99385
153.50 0.99652
154.00 0.99917
154.50 1.00200
155.00 1.00460
155.50 1.00478
156.00 1.00569
156.50 1.00660
157.00 1.00750
157.50 1.00839
158.00 1.00927
158.50 1.00939
159.00 1.00828
159.50 1.00722
160.00 1.00625
160.50 1.00527
161.00 1.00429
161.50 1.00332
162.00 1.00221
162.50 1.00054
163.00 0.99887
163.50 0.99738
164.00 0.99602
164.50 0.99466
165.00 0.99332
165.50 0.99197
166.00 0.99056
166.50 0.98914
167.00 0.98795
167.50 0.98688
168.00 0.98618
168.50 0.98555
169.00 0.98494
169.50 0.98433
170.00 0.98370
170.50 0.98306
171.00 0.98243
171.50 0.98212
172.00 0.98227
172.50 0.98243
173.00 0.98261
173.50 0.98280
174.00 0.98292
174.50 0.98274
175.00 0.98285
175.50 0.98304
176.00 0.98331
176.50 0.98360
177.00 0.98392
177.50 0.98413
178.00 0.98416
178.50 0.98420
179.00 0.98427
179.50 0.98438
180.00 0.98455
180.00 0.98455
180.50 0.98438
181.00 0.98427
181.50 0.98420
182.00 0.98416
182.50 0.98413
183.00 0.98392
183.50 0.98360
184.00 0.98331
184.50 0.98304
185.00 0.98285
185.50 0.98274
186.00 0.98292
186.50 0.98280
187.00 0.98261
187.50 0.98243
188.00 0.98227
188.50 0.98212
189.00 0.98243
189.50 0.98306
190.00 0.98370
190.50 0.98433
191.00 0.98494
191.50 0.98555
192.00 0.98618
192.50 0.98688
193.00 0.98795
193.50 0.98914
194.00 0.99056
194.50 0.99197
195.00 0.99332
195.50 0.99466
196.00 0.99602
196.50 0.99738
197.00 0.99887
197.50 1.00054
198.00 1.00221
198.50 1.00332
199.00 1.00429
199.50 1.00527
200.00 1.00625
200.50 1.00722
201.00 1.00828
201.50 1.00939
202.00 1.00927
202.50 1.00839
203.00 1.00750
203.50 1.00660
204.00 1.00569
204.50 1.00478
205.00 1.00460
205.50 1.00200
206.00 0.99917
206.50 0.99652
207.00 0.99385
207.50 0.99116
208.00 0.98846
208.50 0.98575
209.00 0.97881
209.50 0.97048
210.00 0.96212
210.50 0.95386
211.00 0.94677
211.50 0.93964
212.00 0.93249
212.50 0.92290
213.00 0.91271
213.50 0.90247
214.00 0.88894
214.50 0.87474
215.00 0.86049
215.50 0.84619
216.00 0.83256
216.50 0.82025
217.00 0.80383
217.50 0.78608
218.00 0.76818
218.50 0.75022
219.00 0.73218
219.50 0.71407
220.00 0.69457
220.50 0.67249
221.00 0.65036
221.50 0.62817
222.00 0.60732
222.50 0.58656
223.00 0.56362
223.50 0.54063
224.00 0.51831
224.50 0.49597
225.00 0.47358
225.50 0.45008
226.00 0.42655
226.50 0.40299
227.00 0.38170
227.50 0.36099
228.00 0.34089
228.50 0.32131
229.00 0.30177
229.50 0.28224
230.00 0.26400
230.50 0.24772
231.00 0.23146
231.50 0.21522
232.00 0.19900
232.50 0.18392
233.00 0.17059
233.50 0.15956
234.00 0.14856
234.50 0.13758
235.00 0.12663
235.50 0.11569
236.00 0.10478
236.50 0.09505
237.00 0.08825
237.50 0.08172
238.00 0.07520
238.50 0.06870
239.00 0.06220
239.50 0.05573
240.00 0.04927
240.50 0.04395
241.00 0.04067
241.50 0.03740
242.00 0.03414
242.50 0.03088
243.00 0.02762
243.50 0.02437
244.00 0.02113
244.50 0.01863
245.00 0.01733
245.50 0.01604
246.00 0.01475
246.50 0.01346
247.00 0.01217
247.50 0.01089
248.00 0.00956
248.50 0.00818
249.00 0.00681
249.50 0.00549
250.00 0.00511
250.50 0.00472
251.00 0.00434
251.50 0.00396
252.00 0.00358
252.50 0.00320
253.00 0.00282
253.50 0.00244
254.00 0.00206
254.50 0.00169
255.00 0.00132
255.50 0.00119
256.00 0.00111
256.50 0.00103
257.00 0.00094
257.50 0.00086
258.00 0.00077
258.50 0.00069
259.00 0.00060
259.50 0.00052
260.00 0.00043
260.50 0.00035
261.00 0.00026
261.50 0.00020
262.00 0.00019
262.50 0.00017
263.00 0.00015
263.50 0.00013
264.00 0.00012
264.50 0.00010
265.00 0.00008
265.50 0.00007
266.00 0.00006
266.50 0.00006
267.00 0.00006
267.50 0.00007
268.00 0.00007
268.50 0.00007
269.00 0.00007
269.50 0.00007
270.00 0.00007
270.00 0.00007
270.50 0.00007
271.00 0.00007
271.50 0.00007
272.00 0.00007
272.50 0.00007
273.00 0.00006
273.50 0.00006
274.00 0.00006
274.50 0.00007
275.00 0.00008
275.50 0.00010
276.00 0.00012
276.50 0.00013
277.00 0.00015
277.50 0.00017
278.00 0.00019
278.50 0.00020
279.00 0.00026
279.50 0.00035
280.00 0.00043
280.50 0.00052
281.00 0.00060
281.50 0.00069
282.00 0.00077
282.50 0.00086
283.00 0.00094
283.50 0.00103
284.00 0.00111
284.50 0.00119
285.00 0.00132
285.50 0.00169
286.00 0.00206
286.50 0.00244
287.00 0.00282
287.50 0.00320
288.00 0.00358
288.50 0.00396
289.00 0.00434
289.50 0.00472
290.00 0.00511
290.50 0.00549
291.00 0.00681
291.50 0.00818
292.00 0.00956
292.50 0.01089
293.00 0.01217
293.50 0.01346
294.00 0.01475
294.50 0.01604
295.00 0.01733
295.50 0.01863
296.00 0.02113
296.50 0.02437
297.00 0.02762
297.50 0.03088
298.00 0.03414
298.50 0.03740
299.00 0.04067
299.50 0.04395
300.00 0.04927
300.50 0.05573
301.00 0.06220
301.50 0.06870
302.00 0.07520
302.50 0.08172
303.00 0.08825
303.50 0.09505
304.00 0.10478
304.50 0.11569
305.00 0.12663
305.50 0.13758
306.00 0.14856
306.50 0.15956
307.00 0.17059
307.50 0.18392
308.00 0.19900
308.50 0.21522
309.00 0.23146
309.50 0.24772
310.00 0.26400
310.50 0.28224
311.00 0.30177
311.50 0.32131
312.00 0.34089
312.50 0.36099
313.00 0.38170
313.50 0.40299
314.00 0.42655
314.50 0.45008
315.00 0.47358
315.50 0.49597
316.00 0.51831
316.50 0.54063
317.00 0.56362
317.50 0.58656
318.00 0.60732
318.50 0.62817
319.00 0.65036
319.50 0.67249
320.00 0.69457
320.50 0.71407
321.00 0.73218
321.50 0.75022
322.00 0.76818
322.50 0.78608
323.00 0.80383
323.50 0.82025
324.00 0.83256
324.50 0.84619
325.00 0.86049
325.50 0.87474
326.00 0.88894
326.50 0.90247
327.00 0.91271
327.50 0.92290
328.00 0.93249
328.50 0.93964
329.00 0.94677
329.50 0.95386
330.00 0.96212
330.50 0.97048
331.00 0.97881
331.50 0.98575
332.00 0.98846
332.50 0.99116
333.00 0.99385
333.50 0.99652
334.00 0.99917
334.50 1.00200
335.00 1.00460
335.50 1.00478
336.00 1.00569
336.50 1.00660
337.00 1.00750
337.50 1.00839
338.00 1.00927
338.50 1.00939
339.00 1.00828
339.50 1.00722
340.00 1.00625
340.50 1.00527
341.00 1.00429
341.50 1.00332
342.00 1.00221
342.50 1.00054
343.00 0.99887
343.50 0.99738
344.00 0.99602
344.50 0.99466
345.00 0.99332
345.50 0.99197
346.00 0.99056
346.50 0.98914
347.00 0.98795
347.50 0.98688
348.00 0.98618
348.50 0.98555
349.00 0.98494
349.50 0.98433
350.00 0.98370
350.50 0.98306
351.00 0.98243
351.50 0.98212
352.00 0.98227
352.50 0.98243
353.00 0.98261
353.50 0.98280
354.00 0.98292
354.50 0.98274
355.00 0.98285
355.50 0.98304
356.00 0.98331
356.50 0.98360
357.00 0.98392
357.50 0.98413
358.00 0.98416
358.50 0.98420
359.00 0.98427
359.50 0.98438
360.00 0.98455
