phi[deg] B[T]
0.00 1.38806
0.50 1.38723
1.00 1.38649
1.50 1.38586
2.00 1.38493
2.50 1.38418
3.00 1.38355
3.50 1.38263
4.00 1.38152
4.50 1.38126
5.00 1.38120
5.50 1.38145
6.00 1.38208
6.50 1.38283
7.00 1.38349
7.50 1.38423
8.00 1.38566
8.50 1.38790
9.00 1.39025
9.50 1.39175
10.00 1.39234
10.50 1.39303
11.00 1.39429
11.50 1.39565
12.00 1.39680
12.50 1.39548
13.00 1.39425
13.50 1.39301
14.00 1.39111
14.50 1.38918
15.00 1.38680
15.50 1.38457
16.00 1.38258
16.50 1.38069
17.00 1.37899
17.50 1.37753
18.00 1.37616
18.50 1.37488
19.00 1.37325
19.50 1.37025
20.00 1.36646
20.50 1.36501
21.00 1.36361
21.50 1.36225
22.00 1.35803
22.50 1.35041
23.00 1.34283
23.50 1.33627
24.00 1.33120
24.50 1.31848
25.00 1.30435
25.50 1.29200
26.00 1.27968
26.50 1.26739
27.00 1.25309
27.50 1.23776
28.00 1.22253
28.50 1.20815
29.00 1.19382
29.50 1.17991
30.00 1.16620
30.50 1.15255
31.00 1.13875
31.50 1.12441
32.00 1.10867
32.50 1.09509
33.00 1.08188
33.50 1.06871
34.00 1.05354
34.50 1.03678
35.00 1.02047
35.50 1.00484
36.00 0.98767
36.50 0.96846
37.00 0.94927
37.50 0.92958
38.00 0.91018
38.50 0.89083
39.00 0.87151
39.50 0.85165
40.00 0.83214
40.50 0.81316
41.00 0.79430
41.50 0.77553
42.00 0.75719
42.50 0.73928
43.00 0.72152
43.50 0.70442
44.00 0.68745
44.50 0.67139
45.00 0.65533
45.50 0.64054
46.00 0.62591
46.50 0.61306
47.00 0.60009
47.50 0.58916
48.00 0.57813
48.50 0.56949
49.00 0.56141
49.50 0.55197
50.00 0.54306
50.50 0.53827
51.00 0.53381
51.50 0.52501
52.00 0.51440
52.50 0.50373
53.00 0.49616
53.50 0.48938
54.00 0.48053
54.50 0.46563
55.00 0.45040
55.50 0.43501
56.00 0.41945
56.50 0.40359
57.00 0.38758
57.50 0.36684
58.00 0.34487
58.50 0.32273
59.00 0.29663
59.50 0.26819
60.00 0.23977
60.50 0.21949
61.00 0.19911
61.50 0.17864
62.00 0.15388
62.50 0.12907
63.00 0.11288
63.50 0.09679
64.00 0.08463
64.50 0.07253
65.00 0.06224
65.50 0.05457
66.00 0.04689
66.50 0.03919
67.00 0.03295
67.50 0.02925
68.00 0.02552
68.50 0.02174
69.00 0.01797
69.50 0.01582
70.00 0.01387
70.50 0.01186
71.00 0.00986
71.50 0.00850
72.00 0.00744
72.50 0.00638
73.00 0.00532
73.50 0.00459
74.00 0.00402
74.50 0.00349
75.00 0.00295
75.50 0.00249
76.00 0.00220
76.50 0.00190
77.00 0.00165
77.50 0.00143
78.00 0.00122
78.50 0.00109
79.00 0.00096
79.50 0.00082
80.00 0.00073
80.50 0.00064
81.00 0.00058
81.50 0.00052
82.00 0.00046
82.50 0.00041
83.00 0.00037
83.50 0.00034
84.00 0.00031
84.50 0.00027
85.00 0.00024
85.50 0.00021
86.00 0.00019
86.50 0.00016
87.00 0.00014
87.50 0.00011
88.00 0.00009
88.50 0.00007
89.00 0.00006
89.50 0.00005
90.00 0.00004
90.00 0.00004
90.50 0.00005
91.00 0.00006
91.50 0.00007
92.00 0.00009
92.50 0.00011
93.00 0.00014
93.50 0.00016
94.00 0.00019
94.50 0.00021
95.00 0.00024
95.50 0.00027
96.00 0.00031
96.50 0.00034
97.00 0.00037
97.50 0.00041
98.00 0.00046
98.50 0.00052
99.00 0.00058
99.50 0.00064
100.00 0.00073
100.50 0.00082
101.00 0.00096
101.50 0.00109
102.00 0.00122
102.50 0.00143
103.00 0.00165
103.50 0.00190
104.00 0.00220
104.50 0.00249
105.00 0.00295
105.50 0.00349
106.00 0.00402
106.50 0.00459
107.00 0.00532
107.50 0.00638
108.00 0.00744
108.50 0.00850
109.00 0.00986
109.50 0.01186
110.00 0.01387
110.50 0.01582
111.00 0.01797
111.50 0.02174
112.00 0.02552
112.50 0.02925
113.00 0.03295
113.50 0.03919
114.00 0.04689
114.50 0.05457
115.00 0.06224
115.50 0.07253
116.00 0.08463
116.50 0.09679
117.00 0.11288
117.50 0.12907
118.00 0.15388
118.50 0.17864
119.00 0.19911
119.50 0.21949
120.00 0.23977
120.50 0.26819
121.00 0.29663
121.50 0.32273
122.00 0.34487
122.50 0.36684
123.00 0.38758
123.50 0.40359
124.00 0.41945
124.50 0.43501
125.00 0.45040
125.50 0.46563
126.00 0.48053
126.50 0.48938
127.00 0.49616
127.50 0.50373
128.00 0.51440
128.50 0.52501
129.00 0.53381
129.50 0.53827
130.00 0.54306
130.50 0.55197
131.00 0.56141
131.50 0.56949
132.00 0.57813
132.50 0.58916
133.00 0.60009
133.50 0.61306
134.00 0.62591
134.50 0.64054
135.00 0.65533
135.50 0.67139
136.00 0.68745
136.50 0.70442
137.00 0.72152
137.50 0.73928
138.00 0.75719
138.50 0.77553
139.00 0.79430
139.50 0.81316
140.00 0.83214
140.50 0.85165
141.00 0.87151
141.50 0.89083
142.00 0.91018
142.50 0.92958
143.00 0.94927
143.50 0.96846
144.00 0.98767
144.50 1.00484
145.00 1.02047
145.50 1.03678
146.00 1.05354
146.50 1.06871
147.00 1.08188
147.50 1.09509
148.00 1.10867
148.50 1.12441
149.00 1.13875
149.50 1.15255
150.00 1.16620
150.50 1.17991
151.00 1.19382
151.50 1.20815
152.00 1.22253
152.50 1.23776
153.00 1.25309
153.50 1.26739
154.00 1.27968
154.50 1.29200
155.00 1.30435
155.50 1.31848
156.00 1.33120
156.50 1.33627
157.00 1.34283
157.50 1.35041
158.00 1.35803
158.50 1.36225
159.00 1.36361
159.50 1.36501
160.00 1.36646
160.50 1.37025
161.00 1.37325
161.50 1.37488
162.00 1.37616
162.50 1.37753
163.00 1.37899
163.50 1.38069
164.00 1.38258
164.50 1.38457
165.00 1.38680
165.50 1.38918
166.00 1.39111
166.50 1.39301
167.00 1.39425
167.50 1.39548
168.00 1.39680
168.50 1.39565
169.00 1.39429
169.50 1.39303
170.00 1.39234
170.50 1.39175
171.00 1.39025
171.50 1.38790
172.00 1.38566
172.50 1.38423
173.00 1.38349
173.50 1.38283
174.00 1.38208
174.50 1.38145
175.00 1.38120
175.50 1.38126
176.00 1.38152
176.50 1.38263
177.00 1.38355
177.50 1.38418
178.00 1.38493
178.50 1.38586
179.00 1.38649
179.50 1.38723
180.00 1.38806
180.00 1.38806
180.50 1.38723
181.00 1.38649
181.50 1.38586
182.00 1.38493
182.50 1.38418
183.00 1.38355
183.50 1.38263
184.00 1.38152
184.50 1.38126
185.00 1.38120
185.50 1.38145
186.00 1.38208
186.50 1.38283
187.00 1.38349
187.50 1.38423
188.00 1.38566
188.50 1.38790
189.00 1.39025
189.50 1.39175
190.00 1.39234
190.50 1.39303
191.00 1.39429
191.50 1.39565
192.00 1.39680
192.50 1.39548
193.00 1.39425
193.50 1.39301
194.00 1.39111
194.50 1.38918
195.00 1.38680
195.50 1.38457
196.00 1.38258
196.50 1.38069
197.00 1.37899
197.50 1.37753
198.00 1.37616
198.50 1.37488
199.00 1.37325
199.50 1.37025
200.00 1.36646
200.50 1.36501
201.00 1.36361
201.50 1.36225
202.00 1.35803
202.50 1.35041
203.00 1.34283
203.50 1.33627
204.00 1.33120
204.50 1.31848
205.00 1.30435
205.50 1.29200
206.00 1.27968
206.50 1.26739
207.00 1.25309
207.50 1.23776
208.00 1.22253
208.50 1.20815
209.00 1.19382
209.50 1.17991
210.00 1.16620
210.50 1.15255
211.00 1.13875
211.50 1.12441
212.00 1.10867
212.50 1.09509
213.00 1.08188
213.50 1.06871
214.00 1.05354
214.50 1.03678
215.00 1.02047
215.50 1.00484
216.00 0.98767
216.50 0.96846
217.00 0.94927
217.50 0.92958
218.00 0.91018
218.50 0.89083
219.00 0.87151
219.50 0.85165
220.00 0.83214
220.50 0.81316
221.00 0.79430
221.50 0.77553
222.00 0.75719
222.50 0.73928
223.00 0.72152
223.50 0.70442
224.00 0.68745
224.50 0.67139
225.00 0.65533
225.50 0.64054
226.00 0.62591
226.50 0.61306
227.00 0.60009
227.50 0.58916
228.00 0.57813
228.50 0.56949
229.00 0.56141
229.50 0.55197
230.00 0.54306
230.50 0.53827
231.00 0.53381
231.50 0.52501
232.00 0.51440
232.50 0.50373
233.00 0.49616
233.50 0.48938
234.00 0.48053
234.50 0.46563
235.00 0.45040
235.50 0.43501
236.00 0.41945
236.50 0.40359
237.00 0.38758
237.50 0.36684
238.00 0.34487
238.50 0.32273
239.00 0.29663
239.50 0.26819
240.00 0.23977
240.50 0.21949
241.00 0.19911
241.50 0.17864
242.00 0.15388
242.50 0.12907
243.00 0.11288
243.50 0.09679
244.00 0.08463
244.50 0.07253
245.00 0.06224
245.50 0.05457
246.00 0.04689
246.50 0.03919
247.00 0.03295
247.50 0.02925
248.00 0.02552
248.50 0.02174
249.00 0.01797
249.50 0.01582
250.00 0.01387
250.50 0.01186
251.00 0.00986
251.50 0.00850
252.00 0.00744
252.50 0.00638
253.00 0.00532
253.50 0.00459
254.00 0.00402
254.50 0.00349
255.00 0.00295
255.50 0.00249
256.00 0.00220
256.50 0.00190
257.00 0.00165
257.50 0.00143
258.00 0.00122
258.50 0.00109
259.00 0.00096
259.50 0.00082
260.00 0.00073
260.50 0.00064
261.00 0.00058
261.50 0.00052
262.00 0.00046
262.50 0.00041
263.00 0.00037
263.50 0.00034
264.00 0.00031
264.50 0.00027
265.00 0.00024
265.50 0.00021
266.00 0.00019
266.50 0.00016
267.00 0.00014
267.50 0.00011
268.00 0.00009
268.50 0.00007
269.00 0.00006
269.50 0.00005
270.00 0.00004
270.00 0.00004
270.50 0.00005
271.00 0.00006
271.50 0.00007
272.00 0.00009
272.50 0.00011
273.00 0.00014
273.50 0.00016
274.00 0.00019
274.50 0.00021
275.00 0.00024
275.50 0.00027
276.00 0.00031
276.50 0.00034
277.00 0.00037
277.50 0.00041
278.00 0.00046
278.50 0.00052
279.00 0.00058
279.50 0.00064
280.00 0.00073
280.50 0.00082
281.00 0.00096
281.50 0.00109
282.00 0.00122
282.50 0.00143
283.00 0.00165
283.50 0.00190
284.00 0.00220
284.50 0.00249
285.00 0.00295
285.50 0.00349
286.00 0.00402
286.50 0.00459
287.00 0.00532
287.50 0.00638
288.00 0.00744
288.50 0.00850
289.00 0.00986
289.50 0.01186
290.00 0.01387
290.50 0.01582
291.00 0.01797
291.50 0.02174
292.00 0.02552
292.50 0.02925
293.00 0.03295
293.50 0.03919
294.00 0.04689
294.50 0.05457
295.00 0.06224
295.50 0.07253
296.00 0.08463
296.50 0.09679
297.00 0.11288
297.50 0.12907
298.00 0.15388
298.50 0.17864
299.00 0.19911
299.50 0.21949
300.00 0.23977
300.50 0.26819
301.00 0.29663
301.50 0.32273
302.00 0.34487
302.50 0.36684
303.00 0.38758
303.50 0.40359
304.00 0.41945
304.50 0.43501
305.00 0.45040
305.50 0.46563
306.00 0.48053
306.50 0.48938
307.00 0.49616
307.50 0.50373
308.00 0.51440
308.50 0.52501
309.00 0.53381
309.50 0.53827
310.00 0.54306
310.50 0.55197
311.00 0.56141
311.50 0.56949
312.00 0.57813
312.50 0.58916
313.00 0.60009
313.50 0.61306
314.00 0.62591
314.50 0.64054
315.00 0.65533
315.50 0.67139
316.00 0.68745
316.50 0.70442
317.00 0.72152
317.50 0.73928
318.00 0.75719
318.50 0.77553
319.00 0.79430
319.50 0.81316
320.00 0.83214
320.50 0.85165
321.00 0.87151
321.50 0.89083
322.00 0.91018
322.50 0.92958
323.00 0.94927
323.50 0.96846
324.00 0.98767
324.50 1.00484
325.00 1.02047
325.50 1.03678
326.00 1.05354
326.50 1.06871
327.00 1.08188
327.50 1.09509
328.00 1.10867
328.50 1.12441
329.00 1.13875
329.50 1.15255
330.00 1.16620
330.50 1.17991
331.00 1.19382
331.50 1.20815
332.00 1.22253
332.50 1.23776
333.00 1.25309
333.50 1.26739
334.00 1.27968
334.50 1.29200
335.00 1.30435
335.50 1.31848
336.00 1.33120
336.50 1.33627
337.00 1.34283
337.50 1.35041
338.00 1.35803
338.50 1.36225
339.00 1.36361
339.50 1.36501
340.00 1.36646
340.50 1.37025
341.00 1.37325
341.50 1.37488
342.00 1.37616
342.50 1.37753
343.00 1.37899
343.50 1.38069
344.00 1.38258
344.50 1.38457
345.00 1.38680
345.50 1.38918
346.00 1.39111
346.50 1.39301
347.00 1.39425
347.50 1.39548
348.00 1.39680
348.50 1.39565
349.00 1.39429
349.50 1.39303
350.00 1.39234
350.50 1.39175
351.00 1.39025
351.50 1.38790
352.00 1.38566
352.50 1.38423
353.00 1.38349
353.50 1.38283
354.00 1.38208
354.50 1.38145
355.00 1.38120
355.50 1.38126
356.00 1.38152
356.50 1.38263
357.00 1.38355
357.50 1.38418
358.00 1.38493
358.50 1.38586
359.00 1.38649
359.50 1.38723
360.00 1.38806
