phi[deg] B[T]
0.00 1.08488
0.50 1.08488
1.00 1.08490
1.50 1.08495
2.00 1.08502
2.50 1.08513
3.00 1.08527
3.50 1.08539
4.00 1.08547
4.50 1.08558
5.00 1.08572
5.50 1.08605
6.00 1.08652
6.50 1.08697
7.00 1.08733
7.50 1.08773
8.00 1.08815
8.50 1.08859
9.00 1.08907
9.50 1.08957
10.00 1.09079
10.50 1.09216
11.00 1.09405
11.50 1.09548
12.00 1.09659
12.50 1.09772
13.00 1.09887
13.50 1.10003
14.00 1.10120
14.50 1.10239
15.00 1.10360
15.50 1.10482
16.00 1.10605
16.50 1.10725
17.00 1.10835
17.50 1.10945
18.00 1.11054
18.50 1.11163
19.00 1.11271
19.50 1.11380
20.00 1.11487
20.50 1.11522
21.00 1.11413
21.50 1.11303
22.00 1.11201
22.50 1.11105
23.00 1.11007
23.50 1.10909
24.00 1.10689
24.50 1.10295
25.00 1.09898
25.50 1.09498
26.00 1.09021
26.50 1.08539
27.00 1.08055
27.50 1.07527
28.00 1.06900
28.50 1.06269
29.00 1.05259
29.50 1.04125
30.00 1.03081
30.50 1.02160
31.00 1.01234
31.50 1.00303
32.00 0.99366
32.50 0.98380
33.00 0.96817
33.50 0.95245
34.00 0.93666
34.50 0.92058
35.00 0.90358
35.50 0.88651
36.00 0.86937
36.50 0.85215
37.00 0.83143
37.50 0.81055
38.00 0.78996
38.50 0.76928
39.00 0.74852
39.50 0.72769
40.00 0.70656
40.50 0.68409
41.00 0.66283
41.50 0.64147
42.00 0.62001
42.50 0.59841
43.00 0.57610
43.50 0.55371
44.00 0.53124
44.50 0.50868
45.00 0.48617
45.50 0.46556
46.00 0.44569
46.50 0.42577
47.00 0.40579
47.50 0.38577
48.00 0.36770
48.50 0.35050
49.00 0.33325
49.50 0.31596
50.00 0.29863
50.50 0.28091
51.00 0.26769
51.50 0.25498
52.00 0.24227
52.50 0.22954
53.00 0.21679
53.50 0.20403
54.00 0.19125
54.50 0.18181
55.00 0.17272
55.50 0.16372
56.00 0.15543
56.50 0.14713
57.00 0.13882
57.50 0.13050
58.00 0.12218
58.50 0.11447
59.00 0.10904
59.50 0.10362
60.00 0.09820
60.50 0.09279
61.00 0.08743
61.50 0.08225
62.00 0.07708
62.50 0.07256
63.00 0.06935
63.50 0.06615
64.00 0.06297
64.50 0.05980
65.00 0.05662
65.50 0.05345
66.00 0.05029
66.50 0.04712
67.00 0.04396
67.50 0.04096
68.00 0.03929
68.50 0.03762
69.00 0.03595
69.50 0.03428
70.00 0.03261
70.50 0.03094
71.00 0.02928
71.50 0.02762
72.00 0.02602
72.50 0.02447
73.00 0.02293
73.50 0.02138
74.00 0.01989
74.50 0.01912
75.00 0.01834
75.50 0.01757
76.00 0.01679
76.50 0.01602
77.00 0.01524
77.50 0.01447
78.00 0.01370
78.50 0.01292
79.00 0.01220
79.50 0.01151
80.00 0.01082
80.50 0.01013
81.00 0.00968
81.50 0.00938
82.00 0.00909
82.50 0.00880
83.00 0.00851
83.50 0.00822
84.00 0.00793
84.50 0.00762
85.00 0.00730
85.50 0.00699
86.00 0.00681
86.50 0.00673
87.00 0.00661
87.50 0.00648
88.00 0.00636
88.50 0.00623
89.00 0.00611
89.50 0.00599
90.00 0.00587
90.00 0.00587
90.50 0.00599
91.00 0.00611
91.50 0.00623
92.00 0.00636
92.50 0.00648
93.00 0.00661
93.50 0.00673
94.00 0.00681
94.50 0.00699
95.00 0.00730
95.50 0.00762
96.00 0.00793
96.50 0.00822
97.00 0.00851
97.50 0.00880
98.00 0.00909
98.50 0.00938
99.00 0.00968
99.50 0.01013
100.00 0.01082
100.50 0.01151
101.00 0.01220
101.50 0.01292
102.00 0.01370
102.50 0.01447
103.00 0.01524
103.50 0.01602
104.00 0.01679
104.50 0.01757
105.00 0.01834
105.50 0.01912
106.00 0.01989
106.50 0.02138
107.00 0.02293
107.50 0.02447
108.00 0.02602
108.50 0.02762
109.00 0.02928
109.50 0.03094
110.00 0.03261
110.50 0.03428
111.00 0.03595
111.50 0.03762
112.00 0.03929
112.50 0.04096
113.00 0.04396
113.50 0.04712
114.00 0.05029
114.50 0.05345
115.00 0.05662
115.50 0.05980
116.00 0.06297
116.50 0.06615
117.00 0.06935
117.50 0.07256
118.00 0.07708
118.50 0.08225
119.00 0.08743
119.50 0.09279
120.00 0.09820
120.50 0.10362
121.00 0.10904
121.50 0.11447
122.00 0.12218
122.50 0.13050
123.00 0.13882
123.50 0.14713
124.00 0.15543
124.50 0.16372
125.00 0.17272
125.50 0.18181
126.00 0.19125
126.50 0.20403
127.00 0.21679
127.50 0.22954
128.00 0.24227
128.50 0.25498
129.00 0.26769
129.50 0.28091
130.00 0.29863
130.50 0.31596
131.00 0.33325
131.50 0.35050
132.00 0.36770
132.50 0.38577
133.00 0.40579
133.50 0.42577
134.00 0.44569
134.50 0.46556
135.00 0.48617
135.50 0.50868
136.00 0.53124
136.50 0.55371
137.00 0.57610
137.50 0.59841
138.00 0.62001
138.50 0.64147
139.00 0.66283
139.50 0.68409
140.00 0.70656
140.50 0.72769
141.00 0.74852
141.50 0.76928
142.00 0.78996
142.50 0.81055
143.00 0.83143
143.50 0.85215
144.00 0.86937
144.50 0.88651
145.00 0.90358
145.50 0.92058
146.00 0.93666
146.50 0.95245
147.00 0.96817
147.50 0.98380
148.00 0.99366
148.50 1.00303
149.00 1.01234
149.50 1.02160
150.00 1.03081
150.50 1.04125
151.00 1.05259
151.50 1.06269
152.00 1.06900
152.50 1.07527
153.00 1.08055
153.50 1.08539
154.00 1.09021
154.50 1.09498
155.00 1.09898
155.50 1.10295
156.00 1.10689
156.50 1.10909
157.00 1.11007
157.50 1.11105
158.00 1.11201
158.50 1.11303
159.00 1.11413
159.50 1.11522
160.00 1.11487
160.50 1.11380
161.00 1.11271
161.50 1.11163
162.00 1.11054
162.50 1.10945
163.00 1.10835
163.50 1.10725
164.00 1.10605
164.50 1.10482
165.00 1.10360
165.50 1.10239
166.00 1.10120
166.50 1.10003
167.00 1.09887
167.50 1.09772
168.00 1.09659
168.50 1.09548
169.00 1.09405
169.50 1.09216
170.00 1.09079
170.50 1.08957
171.00 1.08907
171.50 1.08859
172.00 1.08815
172.50 1.08773
173.00 1.08733
173.50 1.08697
174.00 1.08652
174.50 1.08605
175.00 1.08572
175.50 1.08558
176.00 1.08547
176.50 1.08539
177.00 1.08527
177.50 1.08513
178.00 1.08502
178.50 1.08495
179.00 1.08490
179.50 1.08488
180.00 1.08488
180.00 1.08488
180.50 1.08488
181.00 1.08490
181.50 1.08495
182.00 1.08502
182.50 1.08513
183.00 1.08527
183.50 1.08539
184.00 1.08547
184.50 1.08558
185.00 1.08572
185.50 1.08605
186.00 1.08652
186.50 1.08697
187.00 1.08733
187.50 1.08773
188.00 1.08815
188.50 1.08859
189.00 1.08907
189.50 1.08957
190.00 1.09079
190.50 1.09216
191.00 1.09405
191.50 1.09548
192.00 1.09659
192.50 1.09772
193.00 1.09887
193.50 1.10003
194.00 1.10120
194.50 1.10239
195.00 1.10360
195.50 1.10482
196.00 1.10605
196.50 1.10725
197.00 1.10835
197.50 1.10945
198.00 1.11054
198.50 1.11163
199.00 1.11271
199.50 1.11380
200.00 1.11487
200.50 1.11522
201.00 1.11413
201.50 1.11303
202.00 1.11201
202.50 1.11105
203.00 1.11007
203.50 1.10909
204.00 1.10689
204.50 1.10295
205.00 1.09898
205.50 1.09498
206.00 1.09021
206.50 1.08539
207.00 1.08055
207.50 1.07527
208.00 1.06900
208.50 1.06269
209.00 1.05259
209.50 1.04125
210.00 1.03081
210.50 1.02160
211.00 1.01234
211.50 1.00303
212.00 0.99366
212.50 0.98380
213.00 0.96817
213.50 0.95245
214.00 0.93666
214.50 0.92058
215.00 0.90358
215.50 0.88651
216.00 0.86937
216.50 0.85215
217.00 0.83143
217.50 0.81055
218.00 0.78996
218.50 0.76928
219.00 0.74852
219.50 0.72769
220.00 0.70656
220.50 0.68409
221.00 0.66283
221.50 0.64147
222.00 0.62001
222.50 0.59841
223.00 0.57610
223.50 0.55371
224.00 0.53124
224.50 0.50868
225.00 0.48617
225.50 0.46556
226.00 0.44569
226.50 0.42577
227.00 0.40579
227.50 0.38577
228.00 0.36770
228.50 0.35050
229.00 0.33325
229.50 0.31596
230.00 0.29863
230.50 0.28091
231.00 0.26769
231.50 0.25498
232.00 0.24227
232.50 0.22954
233.00 0.21679
233.50 0.20403
234.00 0.19125
234.50 0.18181
235.00 0.17272
235.50 0.16372
236.00 0.15543
236.50 0.14713
237.00 0.13882
237.50 0.13050
238.00 0.12218
238.50 0.11447
239.00 0.10904
239.50 0.10362
240.00 0.09820
240.50 0.09279
241.00 0.08743
241.50 0.08225
242.00 0.07708
242.50 0.07256
243.00 0.06935
243.50 0.06615
244.00 0.06297
244.50 0.05980
245.00 0.05662
245.50 0.05345
246.00 0.05029
246.50 0.04712
247.00 0.04396
247.50 0.04096
248.00 0.03929
248.50 0.03762
249.00 0.03595
249.50 0.03428
250.00 0.03261
250.50 0.03094
251.00 0.02928
251.50 0.02762
252.00 0.02602
252.50 0.02447
253.00 0.02293
253.50 0.02138
254.00 0.01989
254.50 0.01912
255.00 0.01834
255.50 0.01757
256.00 0.01679
256.50 0.01602
257.00 0.01524
257.50 0.01447
258.00 0.01370
258.50 0.01292
259.00 0.01220
259.50 0.01151
260.00 0.01082
260.50 0.01013
261.00 0.00968
261.50 0.00938
262.00 0.00909
262.50 0.00880
263.00 0.00851
263.50 0.00822
264.00 0.00793
264.50 0.00762
265.00 0.00730
265.50 0.00699
266.00 0.00681
266.50 0.00673
267.00 0.00661
267.50 0.00648
268.00 0.00636
268.50 0.00623
269.00 0.00611
269.50 0.00599
270.00 0.00587
270.00 0.00587
270.50 0.00599
271.00 0.00611
271.50 0.00623
272.00 0.00636
272.50 0.00648
273.00 0.00661
273.50 0.00673
274.00 0.00681
274.50 0.00699
275.00 0.00730
275.50 0.00762
276.00 0.00793
276.50 0.00822
277.00 0.00851
277.50 0.00880
278.00 0.00909
278.50 0.00938
279.00 0.00968
279.50 0.01013
280.00 0.01082
280.50 0.01151
281.00 0.01220
281.50 0.01292
282.00 0.01370
282.50 0.01447
283.00 0.01524
283.50 0.01602
284.00 0.01679
284.50 0.01757
285.00 0.01834
285.50 0.01912
286.00 0.01989
286.50 0.02138
287.00 0.02293
287.50 0.02447
288.00 0.02602
288.50 0.02762
289.00 0.02928
289.50 0.03094
290.00 0.03261
290.50 0.03428
291.00 0.03595
291.50 0.03762
292.00 0.03929
292.50 0.04096
293.00 0.04396
293.50 0.04712
294.00 0.05029
294.50 0.05345
295.00 0.05662
295.50 0.05980
296.00 0.06297
296.50 0.06615
297.00 0.06935
297.50 0.07256
298.00 0.07708
298.50 0.08225
299.00 0.08743
299.50 0.09279
300.00 0.09820
300.50 0.10362
301.00 0.10904
301.50 0.11447
302.00 0.12218
302.50 0.13050
303.00 0.13882
303.50 0.14713
304.00 0.15543
304.50 0.16372
305.00 0.17272
305.50 0.18181
306.00 0.19125
306.50 0.20403
307.00 0.21679
307.50 0.22954
308.00 0.24227
308.50 0.25498
309.00 0.26769
309.50 0.28091
310.00 0.29863
310.50 0.31596
311.00 0.33325
311.50 0.35050
312.00 0.36770
312.50 0.38577
313.00 0.40579
313.50 0.42577
314.00 0.44569
314.50 0.46556
315.00 0.48617
315.50 0.50868
316.00 0.53124
316.50 0.55371
317.00 0.57610
317.50 0.59841
318.00 0.62001
318.50 0.64147
319.00 0.66283
319.50 0.68409
320.00 0.70656
320.50 0.72769
321.00 0.74852
321.50 0.76928
322.00 0.78996
322.50 0.81055
323.00 0.83143
323.50 0.85215
324.00 0.86937
324.50 0.88651
325.00 0.90358
325.50 0.92058
326.00 0.93666
326.50 0.95245
327.00 0.96817
327.50 0.98380
328.00 0.99366
328.50 1.00303
329.00 1.01234
329.50 1.02160
330.00 1.03081
330.50 1.04125
331.00 1.05259
331.50 1.06269
332.00 1.06900
332.50 1.07527
333.00 1.08055
333.50 1.08539
334.00 1.09021
334.50 1.09498
335.00 1.09898
335.50 1.10295
336.00 1.10689
336.50 1.10909
337.00 1.11007
337.50 1.11105
338.00 1.11201
338.50 1.11303
339.00 1.11413
339.50 1.11522
340.00 1.11487
340.50 1.11380
341.00 1.11271
341.50 1.11163
342.00 1.11054
342.50 1.10945
343.00 1.10835
343.50 1.10725
344.00 1.10605
344.50 1.10482
345.00 1.10360
345.50 1.10239
346.00 1.10120
346.50 1.10003
347.00 1.09887
347.50 1.09772
348.00 1.09659
348.50 1.09548
349.00 1.09405
349.50 1.09216
350.00 1.09079
350.50 1.08957
351.00 1.08907
351.50 1.08859
352.00 1.08815
352.50 1.08773
353.00 1.08733
353.50 1.08697
354.00 1.08652
354.50 1.08605
355.00 1.08572
355.50 1.08558
356.00 1.08547
356.50 1.08539
357.00 1.08527
357.50 1.08513
358.00 1.08502
358.50 1.08495
359.00 1.08490
359.50 1.08488
360.00 1.08488
