phi[deg] B[T]
0.00 1.54436
0.50 1.54400
1.00 1.54376
1.50 1.54364
2.00 1.54361
2.50 1.54368
3.00 1.54387
3.50 1.54419
4.00 1.54463
4.50 1.54516
5.00 1.54582
5.50 1.54689
6.00 1.54823
6.50 1.54968
7.00 1.55078
7.50 1.55185
8.00 1.55304
8.50 1.55435
9.00 1.55698
9.50 1.55958
10.00 1.56153
10.50 1.56262
11.00 1.56323
11.50 1.56392
12.00 1.56469
12.50 1.56414
13.00 1.56324
13.50 1.56227
14.00 1.56060
14.50 1.55902
15.00 1.55753
15.50 1.55564
16.00 1.55366
16.50 1.55172
17.00 1.54861
17.50 1.54558
18.00 1.54264
18.50 1.54028
19.00 1.53906
19.50 1.53756
20.00 1.53597
20.50 1.53123
21.00 1.52632
21.50 1.52145
22.00 1.51647
22.50 1.51092
23.00 1.50540
23.50 1.49719
24.00 1.48611
24.50 1.47505
25.00 1.46286
25.50 1.44785
26.00 1.43287
26.50 1.41712
27.00 1.40039
27.50 1.38369
28.00 1.36703
28.50 1.34985
29.00 1.33205
29.50 1.31398
30.00 1.29597
30.50 1.27811
31.00 1.26031
31.50 1.24256
32.00 1.22487
32.50 1.20762
33.00 1.19043
33.50 1.17284
34.00 1.15501
34.50 1.13724
35.00 1.11953
35.50 1.10284
36.00 1.08688
36.50 1.07080
37.00 1.05468
37.50 1.03828
38.00 1.02091
38.50 1.00362
39.00 0.98715
39.50 0.97071
40.00 0.95432
40.50 0.93709
41.00 0.91927
41.50 0.90187
42.00 0.88449
42.50 0.86648
43.00 0.84842
43.50 0.83042
44.00 0.81163
44.50 0.79231
45.00 0.77306
45.50 0.75388
46.00 0.73474
46.50 0.71569
47.00 0.69674
47.50 0.67788
48.00 0.66010
48.50 0.64265
49.00 0.62572
49.50 0.60911
50.00 0.59287
50.50 0.57732
51.00 0.56589
51.50 0.55231
52.00 0.53668
52.50 0.52099
53.00 0.50524
53.50 0.49029
54.00 0.47940
54.50 0.46549
55.00 0.44707
55.50 0.42851
56.00 0.40981
56.50 0.39097
57.00 0.37330
57.50 0.35752
58.00 0.33119
58.50 0.30805
59.00 0.28681
59.50 0.26546
60.00 0.24324
60.50 0.21972
61.00 0.19610
61.50 0.17265
62.00 0.15503
62.50 0.13955
63.00 0.12384
63.50 0.10770
64.00 0.09153
64.50 0.08064
65.00 0.07172
65.50 0.06278
66.00 0.05400
66.50 0.04602
67.00 0.04104
67.50 0.03625
68.00 0.03145
68.50 0.02665
69.00 0.02290
69.50 0.02000
70.00 0.01756
70.50 0.01536
71.00 0.01316
71.50 0.01145
72.00 0.01014
72.50 0.00883
73.00 0.00762
73.50 0.00653
74.00 0.00561
74.50 0.00503
75.00 0.00445
75.50 0.00388
76.00 0.00330
76.50 0.00285
77.00 0.00255
77.50 0.00225
78.00 0.00194
78.50 0.00166
79.00 0.00150
79.50 0.00134
80.00 0.00118
80.50 0.00102
81.00 0.00090
81.50 0.00081
82.00 0.00072
82.50 0.00062
83.00 0.00055
83.50 0.00050
84.00 0.00045
84.50 0.00039
85.00 0.00035
85.50 0.00032
86.00 0.00029
86.50 0.00026
87.00 0.00023
87.50 0.00022
88.00 0.00020
88.50 0.00019
89.00 0.00018
89.50 0.00017
90.00 0.00016
90.00 0.00016
90.50 0.00017
91.00 0.00018
91.50 0.00019
92.00 0.00020
92.50 0.00022
93.00 0.00023
93.50 0.00026
94.00 0.00029
94.50 0.00032
95.00 0.00035
95.50 0.00039
96.00 0.00045
96.50 0.00050
97.00 0.00055
97.50 0.00062
98.00 0.00072
98.50 0.00081
99.00 0.00090
99.50 0.00102
100.00 0.00118
100.50 0.00134
101.00 0.00150
101.50 0.00166
102.00 0.00194
102.50 0.00225
103.00 0.00255
103.50 0.00285
104.00 0.00330
104.50 0.00388
105.00 0.00445
105.50 0.00503
106.00 0.00561
106.50 0.00653
107.00 0.00762
107.50 0.00883
108.00 0.01014
108.50 0.01145
109.00 0.01316
109.50 0.01536
110.00 0.01756
110.50 0.02000
111.00 0.02290
111.50 0.02665
112.00 0.03145
112.50 0.03625
113.00 0.04104
113.50 0.04602
114.00 0.05400
114.50 0.06278
115.00 0.07172
115.50 0.08064
116.00 0.09153
116.50 0.10770
117.00 0.12384
117.50 0.13955
118.00 0.15503
118.50 0.17265
119.00 0.19610
119.50 0.21972
120.00 0.24324
120.50 0.26546
121.00 0.28681
121.50 0.30805
122.00 0.33119
122.50 0.35752
123.00 0.37330
123.50 0.39097
124.00 0.40981
124.50 0.42851
125.00 0.44707
125.50 0.46549
126.00 0.47940
126.50 0.49029
127.00 0.50524
127.50 0.52099
128.00 0.53668
128.50 0.55231
129.00 0.56589
129.50 0.57732
130.00 0.59287
130.50 0.60911
131.00 0.62572
131.50 0.64265
132.00 0.66010
132.50 0.67788
133.00 0.69674
133.50 0.71569
134.00 0.73474
134.50 0.75388
135.00 0.77306
135.50 0.79231
136.00 0.81163
136.50 0.83042
137.00 0.84842
137.50 0.86648
138.00 0.88449
138.50 0.90187
139.00 0.91927
139.50 0.93709
140.00 0.95432
140.50 0.97071
141.00 0.98715
141.50 1.00362
142.00 1.02091
142.50 1.03828
143.00 1.05468
143.50 1.07080
144.00 1.08688
144.50 1.10284
145.00 1.11953
145.50 1.13724
146.00 1.15501
146.50 1.17284
147.00 1.19043
147.50 1.20762
148.00 1.22487
148.50 1.24256
149.00 1.26031
149.50 1.27811
150.00 1.29597
150.50 1.31398
151.00 1.33205
151.50 1.34985
152.00 1.36703
152.50 1.38369
153.00 1.40039
153.50 1.41712
154.00 1.43287
154.50 1.44785
155.00 1.46286
155.50 1.47505
156.00 1.48611
156.50 1.49719
157.00 1.50540
157.50 1.51092
158.00 1.51647
158.50 1.52145
159.00 1.52632
159.50 1.53123
160.00 1.53597
160.50 1.53756
161.00 1.53906
161.50 1.54028
162.00 1.54264
162.50 1.54558
163.00 1.54861
163.50 1.55172
164.00 1.55366
164.50 1.55564
165.00 1.55753
165.50 1.55902
166.00 1.56060
166.50 1.56227
167.00 1.56324
167.50 1.56414
168.00 1.56469
168.50 1.56392
169.00 1.56323
169.50 1.56262
170.00 1.56153
170.50 1.55958
171.00 1.55698
171.50 1.55435
172.00 1.55304
172.50 1.55185
173.00 1.55078
173.50 1.54968
174.00 1.54823
174.50 1.54689
175.00 1.54582
175.50 1.54516
176.00 1.54463
176.50 1.54419
177.00 1.54387
177.50 1.54368
178.00 1.54361
178.50 1.54364
179.00 1.54376
179.50 1.54400
180.00 1.54436
180.00 1.54436
180.50 1.54400
181.00 1.54376
181.50 1.54364
182.00 1.54361
182.50 1.54368
183.00 1.54387
183.50 1.54419
184.00 1.54463
184.50 1.54516
185.00 1.54582
185.50 1.54689
186.00 1.54823
186.50 1.54968
187.00 1.55078
187.50 1.55185
188.00 1.55304
188.50 1.55435
189.00 1.55698
189.50 1.55958
190.00 1.56153
190.50 1.56262
191.00 1.56323
191.50 1.56392
192.00 1.56469
192.50 1.56414
193.00 1.56324
193.50 1.56227
194.00 1.56060
194.50 1.55902
195.00 1.55753
195.50 1.55564
196.00 1.55366
196.50 1.55172
197.00 1.54861
197.50 1.54558
198.00 1.54264
198.50 1.54028
199.00 1.53906
199.50 1.53756
200.00 1.53597
200.50 1.53123
201.00 1.52632
201.50 1.52145
202.00 1.51647
202.50 1.51092
203.00 1.50540
203.50 1.49719
204.00 1.48611
204.50 1.47505
205.00 1.46286
205.50 1.44785
206.00 1.43287
206.50 1.41712
207.00 1.40039
207.50 1.38369
208.00 1.36703
208.50 1.34985
209.00 1.33205
209.50 1.31398
210.00 1.29597
210.50 1.27811
211.00 1.26031
211.50 1.24256
212.00 1.22487
212.50 1.20762
213.00 1.19043
213.50 1.17284
214.00 1.15501
214.50 1.13724
215.00 1.11953
215.50 1.10284
216.00 1.08688
216.50 1.07080
217.00 1.05468
217.50 1.03828
218.00 1.02091
218.50 1.00362
219.00 0.98715
219.50 0.97071
220.00 0.95432
220.50 0.93709
221.00 0.91927
221.50 0.90187
222.00 0.88449
222.50 0.86648
223.00 0.84842
223.50 0.83042
224.00 0.81163
224.50 0.79231
225.00 0.77306
225.50 0.75388
226.00 0.73474
226.50 0.71569
227.00 0.69674
227.50 0.67788
228.00 0.66010
228.50 0.64265
229.00 0.62572
229.50 0.60911
230.00 0.59287
230.50 0.57732
231.00 0.56589
231.50 0.55231
232.00 0.53668
232.50 0.52099
233.00 0.50524
233.50 0.49029
234.00 0.47940
234.50 0.46549
235.00 0.44707
235.50 0.42851
236.00 0.40981
236.50 0.39097
237.00 0.37330
237.50 0.35752
238.00 0.33119
238.50 0.30805
239.00 0.28681
239.50 0.26546
240.00 0.24324
240.50 0.21972
241.00 0.19610
241.50 0.17265
242.00 0.15503
242.50 0.13955
243.00 0.12384
243.50 0.10770
244.00 0.09153
244.50 0.08064
245.00 0.07172
245.50 0.06278
246.00 0.05400
246.50 0.04602
247.00 0.04104
247.50 0.03625
248.00 0.03145
248.50 0.02665
249.00 0.02290
249.50 0.02000
250.00 0.01756
250.50 0.01536
251.00 0.01316
251.50 0.01145
252.00 0.01014
252.50 0.00883
253.00 0.00762
253.50 0.00653
254.00 0.00561
254.50 0.00503
255.00 0.00445
255.50 0.00388
256.00 0.00330
256.50 0.00285
257.00 0.00255
257.50 0.00225
258.00 0.00194
258.50 0.00166
259.00 0.00150
259.50 0.00134
260.00 0.00118
260.50 0.00102
261.00 0.00090
261.50 0.00081
262.00 0.00072
262.50 0.00062
263.00 0.00055
263.50 0.00050
264.00 0.00045
264.50 0.00039
265.00 0.00035
265.50 0.00032
266.00 0.00029
266.50 0.00026
267.00 0.00023
267.50 0.00022
268.00 0.00020
268.50 0.00019
269.00 0.00018
269.50 0.00017
270.00 0.00016
270.00 0.00016
270.50 0.00017
271.00 0.00018
271.50 0.00019
272.00 0.00020
272.50 0.00022
273.00 0.00023
273.50 0.00026
274.00 0.00029
274.50 0.00032
275.00 0.00035
275.50 0.00039
276.00 0.00045
276.50 0.00050
277.00 0.00055
277.50 0.00062
278.00 0.00072
278.50 0.00081
279.00 0.00090
279.50 0.00102
280.00 0.00118
280.50 0.00134
281.00 0.00150
281.50 0.00166
282.00 0.00194
282.50 0.00225
283.00 0.00255
283.50 0.00285
284.00 0.00330
284.50 0.00388
285.00 0.00445
285.50 0.00503
286.00 0.00561
286.50 0.00653
287.00 0.00762
287.50 0.00883
288.00 0.01014
288.50 0.01145
289.00 0.01316
289.50 0.01536
290.00 0.01756
290.50 0.02000
291.00 0.02290
291.50 0.02665
292.00 0.03145
292.50 0.03625
293.00 0.04104
293.50 0.04602
294.00 0.05400
294.50 0.06278
295.00 0.07172
295.50 0.08064
296.00 0.09153
296.50 0.10770
297.00 0.12384
297.50 0.13955
298.00 0.15503
298.50 0.17265
299.00 0.19610
299.50 0.21972
300.00 0.24324
300.50 0.26546
301.00 0.28681
301.50 0.30805
302.00 0.33119
302.50 0.35752
303.00 0.37330
303.50 0.39097
304.00 0.40981
304.50 0.42851
305.00 0.44707
305.50 0.46549
306.00 0.47940
306.50 0.49029
307.00 0.50524
307.50 0.52099
308.00 0.53668
308.50 0.55231
309.00 0.56589
309.50 0.57732
310.00 0.59287
310.50 0.60911
311.00 0.62572
311.50 0.64265
312.00 0.66010
312.50 0.67788
313.00 0.69674
313.50 0.71569
314.00 0.73474
314.50 0.75388
315.00 0.77306
315.50 0.79231
316.00 0.81163
316.50 0.83042
317.00 0.84842
317.50 0.86648
318.00 0.88449
318.50 0.90187
319.00 0.91927
319.50 0.93709
320.00 0.95432
320.50 0.97071
321.00 0.98715
321.50 1.00362
322.00 1.02091
322.50 1.03828
323.00 1.05468
323.50 1.07080
324.00 1.08688
324.50 1.10284
325.00 1.11953
325.50 1.13724
326.00 1.15501
326.50 1.17284
327.00 1.19043
327.50 1.20762
328.00 1.22487
328.50 1.24256
329.00 1.26031
329.50 1.27811
330.00 1.29597
330.50 1.31398
331.00 1.33205
331.50 1.34985
332.00 1.36703
332.50 1.38369
333.00 1.40039
333.50 1.41712
334.00 1.43287
334.50 1.44785
335.00 1.46286
335.50 1.47505
336.00 1.48611
336.50 1.49719
337.00 1.50540
337.50 1.51092
338.00 1.51647
338.50 1.52145
339.00 1.52632
339.50 1.53123
340.00 1.53597
340.50 1.53756
341.00 1.53906
341.50 1.54028
342.00 1.54264
342.50 1.54558
343.00 1.54861
343.50 1.55172
344.00 1.55366
344.50 1.55564
345.00 1.55753
345.50 1.55902
346.00 1.56060
346.50 1.56227
347.00 1.56324
347.50 1.56414
348.00 1.56469
348.50 1.56392
349.00 1.56323
349.50 1.56262
350.00 1.56153
350.50 1.55958
351.00 1.55698
351.50 1.55435
352.00 1.55304
352.50 1.55185
353.00 1.55078
353.50 1.54968
354.00 1.54823
354.50 1.54689
355.00 1.54582
355.50 1.54516
356.00 1.54463
356.50 1.54419
357.00 1.54387
357.50 1.54368
358.00 1.54361
358.50 1.54364
359.00 1.54376
359.50 1.54400
360.00 1.54436
