phi[deg] B[T]
0.00 1.78378
0.50 1.78324
1.00 1.78284
1.50 1.78257
2.00 1.78245
2.50 1.78248
3.00 1.78262
3.50 1.78289
4.00 1.78331
4.50 1.78386
5.00 1.78420
5.50 1.78457
6.00 1.78508
6.50 1.78573
7.00 1.78652
7.50 1.78745
8.00 1.78852
8.50 1.78996
9.00 1.79088
9.50 1.79179
10.00 1.79281
10.50 1.79395
11.00 1.79519
11.50 1.79655
12.00 1.79803
12.50 1.79961
13.00 1.80131
13.50 1.80334
14.00 1.80457
14.50 1.80461
15.00 1.80473
15.50 1.80493
16.00 1.80523
16.50 1.80560
17.00 1.80607
17.50 1.80662
18.00 1.80760
18.50 1.81004
19.00 1.81040
19.50 1.80739
20.00 1.80441
20.50 1.80144
21.00 1.79850
21.50 1.79559
22.00 1.79268
22.50 1.78896
23.00 1.78526
23.50 1.77596
24.00 1.76366
24.50 1.75136
25.00 1.73905
25.50 1.72673
26.00 1.71441
26.50 1.70222
27.00 1.69032
27.50 1.67427
28.00 1.65638
28.50 1.63807
29.00 1.61974
29.50 1.60141
30.00 1.58306
30.50 1.56471
31.00 1.54635
31.50 1.52799
32.00 1.50963
32.50 1.49352
33.00 1.47387
33.50 1.45137
34.00 1.42882
34.50 1.40626
35.00 1.38365
35.50 1.36099
36.00 1.33829
36.50 1.31553
37.00 1.28956
37.50 1.26357
38.00 1.23754
38.50 1.21148
39.00 1.18524
39.50 1.15700
40.00 1.13030
40.50 1.10353
41.00 1.07671
41.50 1.04938
42.00 1.01987
42.50 0.99312
43.00 0.96627
43.50 0.93814
44.00 0.90835
44.50 0.87846
45.00 0.84847
45.50 0.81873
46.00 0.78925
46.50 0.75963
47.00 0.72812
47.50 0.69593
48.00 0.66362
48.50 0.63249
49.00 0.60182
49.50 0.57105
50.00 0.54016
50.50 0.51129
51.00 0.48291
51.50 0.45444
52.00 0.42603
52.50 0.39758
53.00 0.36905
53.50 0.34287
54.00 0.31692
54.50 0.29457
55.00 0.27408
55.50 0.25355
56.00 0.23298
56.50 0.21239
57.00 0.19277
57.50 0.17393
58.00 0.15710
58.50 0.14494
59.00 0.13404
59.50 0.12314
60.00 0.11224
60.50 0.10135
61.00 0.09046
61.50 0.07957
62.00 0.06877
62.50 0.05976
63.00 0.05502
63.50 0.05068
64.00 0.04635
64.50 0.04202
65.00 0.03770
65.50 0.03339
66.00 0.02908
66.50 0.02555
67.00 0.02342
67.50 0.02153
68.00 0.01958
68.50 0.01763
69.00 0.01567
69.50 0.01371
70.00 0.01252
70.50 0.01152
71.00 0.01053
71.50 0.00955
72.00 0.00856
72.50 0.00757
73.00 0.00670
73.50 0.00620
74.00 0.00570
74.50 0.00520
75.00 0.00470
75.50 0.00419
76.00 0.00369
76.50 0.00319
77.00 0.00294
77.50 0.00271
78.00 0.00248
78.50 0.00225
79.00 0.00202
79.50 0.00179
80.00 0.00156
80.50 0.00141
81.00 0.00130
81.50 0.00119
82.00 0.00108
82.50 0.00097
83.00 0.00086
83.50 0.00079
84.00 0.00072
84.50 0.00066
85.00 0.00060
85.50 0.00054
86.00 0.00050
86.50 0.00046
87.00 0.00043
87.50 0.00040
88.00 0.00037
88.50 0.00035
89.00 0.00034
89.50 0.00033
90.00 0.00031
90.00 0.00031
90.50 0.00033
91.00 0.00034
91.50 0.00035
92.00 0.00037
92.50 0.00040
93.00 0.00043
93.50 0.00046
94.00 0.00050
94.50 0.00054
95.00 0.00060
95.50 0.00066
96.00 0.00072
96.50 0.00079
97.00 0.00086
97.50 0.00097
98.00 0.00108
98.50 0.00119
99.00 0.00130
99.50 0.00141
100.00 0.00156
100.50 0.00179
101.00 0.00202
101.50 0.00225
102.00 0.00248
102.50 0.00271
103.00 0.00294
103.50 0.00319
104.00 0.00369
104.50 0.00419
105.00 0.00470
105.50 0.00520
106.00 0.00570
106.50 0.00620
107.00 0.00670
107.50 0.00757
108.00 0.00856
108.50 0.00955
109.00 0.01053
109.50 0.01152
110.00 0.01252
110.50 0.01371
111.00 0.01567
111.50 0.01763
112.00 0.01958
112.50 0.02153
113.00 0.02342
113.50 0.02555
114.00 0.02908
114.50 0.03339
115.00 0.03770
115.50 0.04202
116.00 0.04635
116.50 0.05068
117.00 0.05502
117.50 0.05976
118.00 0.06877
118.50 0.07957
119.00 0.09046
119.50 0.10135
120.00 0.11224
120.50 0.12314
121.00 0.13404
121.50 0.14494
122.00 0.15710
122.50 0.17393
123.00 0.19277
123.50 0.21239
124.00 0.23298
124.50 0.25355
125.00 0.27408
125.50 0.29457
126.00 0.31692
126.50 0.34287
127.00 0.36905
127.50 0.39758
128.00 0.42603
128.50 0.45444
129.00 0.48291
129.50 0.51129
130.00 0.54016
130.50 0.57105
131.00 0.60182
131.50 0.63249
132.00 0.66362
132.50 0.69593
133.00 0.72812
133.50 0.75963
134.00 0.78925
134.50 0.81873
135.00 0.84847
135.50 0.87846
136.00 0.90835
136.50 0.93814
137.00 0.96627
137.50 0.99312
138.00 1.01987
138.50 1.04938
139.00 1.07671
139.50 1.10353
140.00 1.13030
140.50 1.15700
141.00 1.18524
141.50 1.21148
142.00 1.23754
142.50 1.26357
143.00 1.28956
143.50 1.31553
144.00 1.33829
144.50 1.36099
145.00 1.38365
145.50 1.40626
146.00 1.42882
146.50 1.45137
147.00 1.47387
147.50 1.49352
148.00 1.50963
148.50 1.52799
149.00 1.54635
149.50 1.56471
150.00 1.58306
150.50 1.60141
151.00 1.61974
151.50 1.63807
152.00 1.65638
152.50 1.67427
153.00 1.69032
153.50 1.70222
154.00 1.71441
154.50 1.72673
155.00 1.73905
155.50 1.75136
156.00 1.76366
156.50 1.77596
157.00 1.78526
157.50 1.78896
158.00 1.79268
158.50 1.79559
159.00 1.79850
159.50 1.80144
160.00 1.80441
160.50 1.80739
161.00 1.81040
161.50 1.81004
162.00 1.80760
162.50 1.80662
163.00 1.80607
163.50 1.80560
164.00 1.80523
164.50 1.80493
165.00 1.80473
165.50 1.80461
166.00 1.80457
166.50 1.80334
167.00 1.80131
167.50 1.79961
168.00 1.79803
168.50 1.79655
169.00 1.79519
169.50 1.79395
170.00 1.79281
170.50 1.79179
171.00 1.79088
171.50 1.78996
172.00 1.78852
172.50 1.78745
173.00 1.78652
173.50 1.78573
174.00 1.78508
174.50 1.78457
175.00 1.78420
175.50 1.78386
176.00 1.78331
176.50 1.78289
177.00 1.78262
177.50 1.78248
178.00 1.78245
178.50 1.78257
179.00 1.78284
179.50 1.78324
180.00 1.78378
180.00 1.78378
180.50 1.78324
181.00 1.78284
181.50 1.78257
182.00 1.78245
182.50 1.78248
183.00 1.78262
183.50 1.78289
184.00 1.78331
184.50 1.78386
185.00 1.78420
185.50 1.78457
186.00 1.78508
186.50 1.78573
187.00 1.78652
187.50 1.78745
188.00 1.78852
188.50 1.78996
189.00 1.79088
189.50 1.79179
190.00 1.79281
190.50 1.79395
191.00 1.79519
191.50 1.79655
192.00 1.79803
192.50 1.79961
193.00 1.80131
193.50 1.80334
194.00 1.80457
194.50 1.80461
195.00 1.80473
195.50 1.80493
196.00 1.80523
196.50 1.80560
197.00 1.80607
197.50 1.80662
198.00 1.80760
198.50 1.81004
199.00 1.81040
199.50 1.80739
200.00 1.80441
200.50 1.80144
201.00 1.79850
201.50 1.79559
202.00 1.79268
202.50 1.78896
203.00 1.78526
203.50 1.77596
204.00 1.76366
204.50 1.75136
205.00 1.73905
205.50 1.72673
206.00 1.71441
206.50 1.70222
207.00 1.69032
207.50 1.67427
208.00 1.65638
208.50 1.63807
209.00 1.61974
209.50 1.60141
210.00 1.58306
210.50 1.56471
211.00 1.54635
211.50 1.52799
212.00 1.50963
212.50 1.49352
213.00 1.47387
213.50 1.45137
214.00 1.42882
214.50 1.40626
215.00 1.38365
215.50 1.36099
216.00 1.33829
216.50 1.31553
217.00 1.28956
217.50 1.26357
218.00 1.23754
218.50 1.21148
219.00 1.18524
219.50 1.15700
220.00 1.13030
220.50 1.10353
221.00 1.07671
221.50 1.04938
222.00 1.01987
222.50 0.99312
223.00 0.96627
223.50 0.93814
224.00 0.90835
224.50 0.87846
225.00 0.84847
225.50 0.81873
226.00 0.78925
226.50 0.75963
227.00 0.72812
227.50 0.69593
228.00 0.66362
228.50 0.63249
229.00 0.60182
229.50 0.57105
230.00 0.54016
230.50 0.51129
231.00 0.48291
231.50 0.45444
232.00 0.42603
232.50 0.39758
233.00 0.36905
233.50 0.34287
234.00 0.31692
234.50 0.29457
235.00 0.27408
235.50 0.25355
236.00 0.23298
236.50 0.21239
237.00 0.19277
237.50 0.17393
238.00 0.15710
238.50 0.14494
239.00 0.13404
239.50 0.12314
240.00 0.11224
240.50 0.10135
241.00 0.09046
241.50 0.07957
242.00 0.06877
242.50 0.05976
243.00 0.05502
243.50 0.05068
244.00 0.04635
244.50 0.04202
245.00 0.03770
245.50 0.03339
246.00 0.02908
246.50 0.02555
247.00 0.02342
247.50 0.02153
248.00 0.01958
248.50 0.01763
249.00 0.01567
249.50 0.01371
250.00 0.01252
250.50 0.01152
251.00 0.01053
251.50 0.00955
252.00 0.00856
252.50 0.00757
253.00 0.00670
253.50 0.00620
254.00 0.00570
254.50 0.00520
255.00 0.00470
255.50 0.00419
256.00 0.00369
256.50 0.00319
257.00 0.00294
257.50 0.00271
258.00 0.00248
258.50 0.00225
259.00 0.00202
259.50 0.00179
260.00 0.00156
260.50 0.00141
261.00 0.00130
261.50 0.00119
262.00 0.00108
262.50 0.00097
263.00 0.00086
263.50 0.00079
264.00 0.00072
264.50 0.00066
265.00 0.00060
265.50 0.00054
266.00 0.00050
266.50 0.00046
267.00 0.00043
267.50 0.00040
268.00 0.00037
268.50 0.00035
269.00 0.00034
269.50 0.00033
270.00 0.00031
270.00 0.00031
270.50 0.00033
271.00 0.00034
271.50 0.00035
272.00 0.00037
272.50 0.00040
273.00 0.00043
273.50 0.00046
274.00 0.00050
274.50 0.00054
275.00 0.00060
275.50 0.00066
276.00 0.00072
276.50 0.00079
277.00 0.00086
277.50 0.00097
278.00 0.00108
278.50 0.00119
279.00 0.00130
279.50 0.00141
280.00 0.00156
280.50 0.00179
281.00 0.00202
281.50 0.00225
282.00 0.00248
282.50 0.00271
283.00 0.00294
283.50 0.00319
284.00 0.00369
284.50 0.00419
285.00 0.00470
285.50 0.00520
286.00 0.00570
286.50 0.00620
287.00 0.00670
287.50 0.00757
288.00 0.00856
288.50 0.00955
289.00 0.01053
289.50 0.01152
290.00 0.01252
290.50 0.01371
291.00 0.01567
291.50 0.01763
292.00 0.01958
292.50 0.02153
293.00 0.02342
293.50 0.02555
294.00 0.02908
294.50 0.03339
295.00 0.03770
295.50 0.04202
296.00 0.04635
296.50 0.05068
297.00 0.05502
297.50 0.05976
298.00 0.06877
298.50 0.07957
299.00 0.09046
299.50 0.10135
300.00 0.11224
300.50 0.12314
301.00 0.13404
301.50 0.14494
302.00 0.15710
302.50 0.17393
303.00 0.19277
303.50 0.21239
304.00 0.23298
304.50 0.25355
305.00 0.27408
305.50 0.29457
306.00 0.31692
306.50 0.34287
307.00 0.36905
307.50 0.39758
308.00 0.42603
308.50 0.45444
309.00 0.48291
309.50 0.51129
310.00 0.54016
310.50 0.57105
311.00 0.60182
311.50 0.63249
312.00 0.66362
312.50 0.69593
313.00 0.72812
313.50 0.75963
314.00 0.78925
314.50 0.81873
315.00 0.84847
315.50 0.87846
316.00 0.90835
316.50 0.93814
317.00 0.96627
317.50 0.99312
318.00 1.01987
318.50 1.04938
319.00 1.07671
319.50 1.10353
320.00 1.13030
320.50 1.15700
321.00 1.18524
321.50 1.21148
322.00 1.23754
322.50 1.26357
323.00 1.28956
323.50 1.31553
324.00 1.33829
324.50 1.36099
325.00 1.38365
325.50 1.40626
326.00 1.42882
326.50 1.45137
327.00 1.47387
327.50 1.49352
328.00 1.50963
328.50 1.52799
329.00 1.54635
329.50 1.56471
330.00 1.58306
330.50 1.60141
331.00 1.61974
331.50 1.63807
332.00 1.65638
332.50 1.67427
333.00 1.69032
333.50 1.70222
334.00 1.71441
334.50 1.72673
335.00 1.73905
335.50 1.75136
336.00 1.76366
336.50 1.77596
337.00 1.78526
337.50 1.78896
338.00 1.79268
338.50 1.79559
339.00 1.79850
339.50 1.80144
340.00 1.80441
340.50 1.80739
341.00 1.81040
341.50 1.81004
342.00 1.80760
342.50 1.80662
343.00 1.80607
343.50 1.80560
344.00 1.80523
344.50 1.80493
345.00 1.80473
345.50 1.80461
346.00 1.80457
346.50 1.80334
347.00 1.80131
347.50 1.79961
348.00 1.79803
348.50 1.79655
349.00 1.79519
349.50 1.79395
350.00 1.79281
350.50 1.79179
351.00 1.79088
351.50 1.78996
352.00 1.78852
352.50 1.78745
353.00 1.78652
353.50 1.78573
354.00 1.78508
354.50 1.78457
355.00 1.78420
355.50 1.78386
356.00 1.78331
356.50 1.78289
357.00 1.78262
357.50 1.78248
358.00 1.78245
358.50 1.78257
359.00 1.78284
359.50 1.78324
360.00 1.78378
