phi[deg] B[T]
0.00 1.18168
0.50 1.18162
1.00 1.18156
1.50 1.18151
2.00 1.18150
2.50 1.18151
3.00 1.18145
3.50 1.18129
4.00 1.18115
4.50 1.18104
5.00 1.18096
5.50 1.18101
6.00 1.18130
6.50 1.18123
7.00 1.18117
7.50 1.18112
8.00 1.18109
8.50 1.18108
9.00 1.18201
9.50 1.18299
10.00 1.18399
10.50 1.18480
11.00 1.18472
11.50 1.18464
12.00 1.18464
12.50 1.18508
13.00 1.18553
13.50 1.18644
14.00 1.18779
14.50 1.18913
15.00 1.19047
15.50 1.19174
16.00 1.19246
16.50 1.19317
17.00 1.19391
17.50 1.19507
18.00 1.19617
18.50 1.19665
19.00 1.19713
19.50 1.19764
20.00 1.19812
20.50 1.19832
21.00 1.19802
21.50 1.19771
22.00 1.19653
22.50 1.19413
23.00 1.19172
23.50 1.18929
24.00 1.18685
24.50 1.18323
25.00 1.17760
25.50 1.17246
26.00 1.16818
26.50 1.16386
27.00 1.15950
27.50 1.15347
28.00 1.14631
28.50 1.13911
29.00 1.13005
29.50 1.11890
30.00 1.10769
30.50 1.09641
31.00 1.08579
31.50 1.07655
32.00 1.06722
32.50 1.05374
33.00 1.03701
33.50 1.02019
34.00 1.00327
34.50 0.98666
35.00 0.97068
35.50 0.95463
36.00 0.93458
36.50 0.91272
37.00 0.89079
37.50 0.87180
38.00 0.85294
38.50 0.83394
39.00 0.81281
39.50 0.78832
40.00 0.76371
40.50 0.74016
41.00 0.71742
41.50 0.69460
42.00 0.67169
42.50 0.64636
43.00 0.62091
43.50 0.59539
44.00 0.56978
44.50 0.54531
45.00 0.52099
45.50 0.49666
46.00 0.47223
46.50 0.45028
47.00 0.42837
47.50 0.40642
48.00 0.38443
48.50 0.36624
49.00 0.34867
49.50 0.33107
50.00 0.31343
50.50 0.29576
51.00 0.27806
51.50 0.26022
52.00 0.24225
52.50 0.22992
53.00 0.21875
53.50 0.20758
54.00 0.19624
54.50 0.18488
55.00 0.17352
55.50 0.16214
56.00 0.15075
56.50 0.13935
57.00 0.13107
57.50 0.12404
58.00 0.11795
58.50 0.11184
59.00 0.10573
59.50 0.09961
60.00 0.09349
60.50 0.08736
61.00 0.08123
61.50 0.07514
62.00 0.07080
62.50 0.06646
63.00 0.06212
63.50 0.05877
64.00 0.05605
64.50 0.05332
65.00 0.05059
65.50 0.04786
66.00 0.04513
66.50 0.04240
67.00 0.03967
67.50 0.03694
68.00 0.03421
68.50 0.03192
69.00 0.02978
69.50 0.02765
70.00 0.02584
70.50 0.02466
71.00 0.02347
71.50 0.02229
72.00 0.02111
72.50 0.01992
73.00 0.01874
73.50 0.01756
74.00 0.01637
74.50 0.01525
75.00 0.01415
75.50 0.01331
76.00 0.01268
76.50 0.01206
77.00 0.01146
77.50 0.01090
78.00 0.01033
78.50 0.00977
79.00 0.00920
79.50 0.00864
80.00 0.00807
80.50 0.00751
81.00 0.00717
81.50 0.00691
82.00 0.00664
82.50 0.00638
83.00 0.00611
83.50 0.00585
84.00 0.00559
84.50 0.00533
85.00 0.00507
85.50 0.00480
86.00 0.00470
86.50 0.00460
87.00 0.00451
87.50 0.00441
88.00 0.00431
88.50 0.00422
89.00 0.00412
89.50 0.00403
90.00 0.00394
90.00 0.00394
90.50 0.00403
91.00 0.00412
91.50 0.00422
92.00 0.00431
92.50 0.00441
93.00 0.00451
93.50 0.00460
94.00 0.00470
94.50 0.00480
95.00 0.00507
95.50 0.00533
96.00 0.00559
96.50 0.00585
97.00 0.00611
97.50 0.00638
98.00 0.00664
98.50 0.00691
99.00 0.00717
99.50 0.00751
100.00 0.00807
100.50 0.00864
101.00 0.00920
101.50 0.00977
102.00 0.01033
102.50 0.01090
103.00 0.01146
103.50 0.01206
104.00 0.01268
104.50 0.01331
105.00 0.01415
105.50 0.01525
106.00 0.01637
106.50 0.01756
107.00 0.01874
107.50 0.01992
108.00 0.02111
108.50 0.02229
109.00 0.02347
109.50 0.02466
110.00 0.02584
110.50 0.02765
111.00 0.02978
111.50 0.03192
112.00 0.03421
112.50 0.03694
113.00 0.03967
113.50 0.04240
114.00 0.04513
114.50 0.04786
115.00 0.05059
115.50 0.05332
116.00 0.05605
116.50 0.05877
117.00 0.06212
117.50 0.06646
118.00 0.07080
118.50 0.07514
119.00 0.08123
119.50 0.08736
120.00 0.09349
120.50 0.09961
121.00 0.10573
121.50 0.11184
122.00 0.11795
122.50 0.12404
123.00 0.13107
123.50 0.13935
124.00 0.15075
124.50 0.16214
125.00 0.17352
125.50 0.18488
126.00 0.19624
126.50 0.20758
127.00 0.21875
127.50 0.22992
128.00 0.24225
128.50 0.26022
129.00 0.27806
129.50 0.29576
130.00 0.31343
130.50 0.33107
131.00 0.34867
131.50 0.36624
132.00 0.38443
132.50 0.40642
133.00 0.42837
133.50 0.45028
134.00 0.47223
134.50 0.49666
135.00 0.52099
135.50 0.54531
136.00 0.56978
136.50 0.59539
137.00 0.62091
137.50 0.64636
138.00 0.67169
138.50 0.69460
139.00 0.71742
139.50 0.74016
140.00 0.76371
140.50 0.78832
141.00 0.81281
141.50 0.83394
142.00 0.85294
142.50 0.87180
143.00 0.89079
143.50 0.91272
144.00 0.93458
144.50 0.95463
145.00 0.97068
145.50 0.98666
146.00 1.00327
146.50 1.02019
147.00 1.03701
147.50 1.05374
148.00 1.06722
148.50 1.07655
149.00 1.08579
149.50 1.09641
150.00 1.10769
150.50 1.11890
151.00 1.13005
151.50 1.13911
152.00 1.14631
152.50 1.15347
153.00 1.15950
153.50 1.16386
154.00 1.16818
154.50 1.17246
155.00 1.17760
155.50 1.18323
156.00 1.18685
156.50 1.18929
157.00 1.19172
157.50 1.19413
158.00 1.19653
158.50 1.19771
159.00 1.19802
159.50 1.19832
160.00 1.19812
160.50 1.19764
161.00 1.19713
161.50 1.19665
162.00 1.19617
162.50 1.19507
163.00 1.19391
163.50 1.19317
164.00 1.19246
164.50 1.19174
165.00 1.19047
165.50 1.18913
166.00 1.18779
166.50 1.18644
167.00 1.18553
167.50 1.18508
168.00 1.18464
168.50 1.18464
169.00 1.18472
169.50 1.18480
170.00 1.18399
170.50 1.18299
171.00 1.18201
171.50 1.18108
172.00 1.18109
172.50 1.18112
173.00 1.18117
173.50 1.18123
174.00 1.18130
174.50 1.18101
175.00 1.18096
175.50 1.18104
176.00 1.18115
176.50 1.18129
177.00 1.18145
177.50 1.18151
178.00 1.18150
178.50 1.18151
179.00 1.18156
179.50 1.18162
180.00 1.18168
180.00 1.18168
180.50 1.18162
181.00 1.18156
181.50 1.18151
182.00 1.18150
182.50 1.18151
183.00 1.18145
183.50 1.18129
184.00 1.18115
184.50 1.18104
185.00 1.18096
185.50 1.18101
186.00 1.18130
186.50 1.18123
187.00 1.18117
187.50 1.18112
188.00 1.18109
188.50 1.18108
189.00 1.18201
189.50 1.18299
190.00 1.18399
190.50 1.18480
191.00 1.18472
191.50 1.18464
192.00 1.18464
192.50 1.18508
193.00 1.18553
193.50 1.18644
194.00 1.18779
194.50 1.18913
195.00 1.19047
195.50 1.19174
196.00 1.19246
196.50 1.19317
197.00 1.19391
197.50 1.19507
198.00 1.19617
198.50 1.19665
199.00 1.19713
199.50 1.19764
200.00 1.19812
200.50 1.19832
201.00 1.19802
201.50 1.19771
202.00 1.19653
202.50 1.19413
203.00 1.19172
203.50 1.18929
204.00 1.18685
204.50 1.18323
205.00 1.17760
205.50 1.17246
206.00 1.16818
206.50 1.16386
207.00 1.15950
207.50 1.15347
208.00 1.14631
208.50 1.13911
209.00 1.13005
209.50 1.11890
210.00 1.10769
210.50 1.09641
211.00 1.08579
211.50 1.07655
212.00 1.06722
212.50 1.05374
213.00 1.03701
213.50 1.02019
214.00 1.00327
214.50 0.98666
215.00 0.97068
215.50 0.95463
216.00 0.93458
216.50 0.91272
217.00 0.89079
217.50 0.87180
218.00 0.85294
218.50 0.83394
219.00 0.81281
219.50 0.78832
220.00 0.76371
220.50 0.74016
221.00 0.71742
221.50 0.69460
222.00 0.67169
222.50 0.64636
223.00 0.62091
223.50 0.59539
224.00 0.56978
224.50 0.54531
225.00 0.52099
225.50 0.49666
226.00 0.47223
226.50 0.45028
227.00 0.42837
227.50 0.40642
228.00 0.38443
228.50 0.36624
229.00 0.34867
229.50 0.33107
230.00 0.31343
230.50 0.29576
231.00 0.27806
231.50 0.26022
232.00 0.24225
232.50 0.22992
233.00 0.21875
233.50 0.20758
234.00 0.19624
234.50 0.18488
235.00 0.17352
235.50 0.16214
236.00 0.15075
236.50 0.13935
237.00 0.13107
237.50 0.12404
238.00 0.11795
238.50 0.11184
239.00 0.10573
239.50 0.09961
240.00 0.09349
240.50 0.08736
241.00 0.08123
241.50 0.07514
242.00 0.07080
242.50 0.06646
243.00 0.06212
243.50 0.05877
244.00 0.05605
244.50 0.05332
245.00 0.05059
245.50 0.04786
246.00 0.04513
246.50 0.04240
247.00 0.03967
247.50 0.03694
248.00 0.03421
248.50 0.03192
249.00 0.02978
249.50 0.02765
250.00 0.02584
250.50 0.02466
251.00 0.02347
251.50 0.02229
252.00 0.02111
252.50 0.01992
253.00 0.01874
253.50 0.01756
254.00 0.01637
254.50 0.01525
255.00 0.01415
255.50 0.01331
256.00 0.01268
256.50 0.01206
257.00 0.01146
257.50 0.01090
258.00 0.01033
258.50 0.00977
259.00 0.00920
259.50 0.00864
260.00 0.00807
260.50 0.00751
261.00 0.00717
261.50 0.00691
262.00 0.00664
262.50 0.00638
263.00 0.00611
263.50 0.00585
264.00 0.00559
264.50 0.00533
265.00 0.00507
265.50 0.00480
266.00 0.00470
266.50 0.00460
267.00 0.00451
267.50 0.00441
268.00 0.00431
268.50 0.00422
269.00 0.00412
269.50 0.00403
270.00 0.00394
270.00 0.00394
270.50 0.00403
271.00 0.00412
271.50 0.00422
272.00 0.00431
272.50 0.00441
273.00 0.00451
273.50 0.00460
274.00 0.00470
274.50 0.00480
275.00 0.00507
275.50 0.00533
276.00 0.00559
276.50 0.00585
277.00 0.00611
277.50 0.00638
278.00 0.00664
278.50 0.00691
279.00 0.00717
279.50 0.00751
280.00 0.00807
280.50 0.00864
281.00 0.00920
281.50 0.00977
282.00 0.01033
282.50 0.01090
283.00 0.01146
283.50 0.01206
284.00 0.01268
284.50 0.01331
285.00 0.01415
285.50 0.01525
286.00 0.01637
286.50 0.01756
287.00 0.01874
287.50 0.01992
288.00 0.02111
288.50 0.02229
289.00 0.02347
289.50 0.02466
290.00 0.02584
290.50 0.02765
291.00 0.02978
291.50 0.03192
292.00 0.03421
292.50 0.03694
293.00 0.03967
293.50 0.04240
294.00 0.04513
294.50 0.04786
295.00 0.05059
295.50 0.05332
296.00 0.05605
296.50 0.05877
297.00 0.06212
297.50 0.06646
298.00 0.07080
298.50 0.07514
299.00 0.08123
299.50 0.08736
300.00 0.09349
300.50 0.09961
301.00 0.10573
301.50 0.11184
302.00 0.11795
302.50 0.12404
303.00 0.13107
303.50 0.13935
304.00 0.15075
304.50 0.16214
305.00 0.17352
305.50 0.18488
306.00 0.19624
306.50 0.20758
307.00 0.21875
307.50 0.22992
308.00 0.24225
308.50 0.26022
309.00 0.27806
309.50 0.29576
310.00 0.31343
310.50 0.33107
311.00 0.34867
311.50 0.36624
312.00 0.38443
312.50 0.40642
313.00 0.42837
313.50 0.45028
314.00 0.47223
314.50 0.49666
315.00 0.52099
315.50 0.54531
316.00 0.56978
316.50 0.59539
317.00 0.62091
317.50 0.64636
318.00 0.67169
318.50 0.69460
319.00 0.71742
319.50 0.74016
320.00 0.76371
320.50 0.78832
321.00 0.81281
321.50 0.83394
322.00 0.85294
322.50 0.87180
323.00 0.89079
323.50 0.91272
324.00 0.93458
324.50 0.95463
325.00 0.97068
325.50 0.98666
326.00 1.00327
326.50 1.02019
327.00 1.03701
327.50 1.05374
328.00 1.06722
328.50 1.07655
329.00 1.08579
329.50 1.09641
330.00 1.10769
330.50 1.11890
331.00 1.13005
331.50 1.13911
332.00 1.14631
332.50 1.15347
333.00 1.15950
333.50 1.16386
334.00 1.16818
334.50 1.17246
335.00 1.17760
335.50 1.18323
336.00 1.18685
336.50 1.18929
337.00 1.19172
337.50 1.19413
338.00 1.19653
338.50 1.19771
339.00 1.19802
339.50 1.19832
340.00 1.19812
340.50 1.19764
341.00 1.19713
341.50 1.19665
342.00 1.19617
342.50 1.19507
343.00 1.19391
343.50 1.19317
344.00 1.19246
344.50 1.19174
345.00 1.19047
345.50 1.18913
346.00 1.18779
346.50 1.18644
347.00 1.18553
347.50 1.18508
348.00 1.18464
348.50 1.18464
349.00 1.18472
349.50 1.18480
350.00 1.18399
350.50 1.18299
351.00 1.18201
351.50 1.18108
352.00 1.18109
352.50 1.18112
353.00 1.18117
353.50 1.18123
354.00 1.18130
354.50 1.18101
355.00 1.18096
355.50 1.18104
356.00 1.18115
356.50 1.18129
357.00 1.18145
357.50 1.18151
358.00 1.18150
358.50 1.18151
359.00 1.18156
359.50 1.18162
360.00 1.18168
