phi[deg] B[T]
0.00 1.98224
0.50 1.98221
1.00 1.98233
1.50 1.98261
2.00 1.98304
2.50 1.98368
3.00 1.98389
3.50 1.98497
4.00 1.98619
4.50 1.98755
5.00 1.98905
5.50 1.99069
6.00 1.99261
6.50 1.99468
7.00 1.99688
7.50 1.99757
8.00 1.99824
8.50 1.99937
9.00 2.00108
9.50 2.00292
10.00 2.00487
10.50 2.00428
11.00 2.00290
11.50 2.00216
12.00 2.00183
12.50 2.00161
13.00 2.00149
13.50 2.00125
14.00 1.99962
14.50 1.99711
15.00 1.99205
15.50 1.98766
16.00 1.98499
16.50 1.98240
17.00 1.97988
17.50 1.97632
18.00 1.96946
18.50 1.96266
19.00 1.95617
19.50 1.95192
20.00 1.94771
20.50 1.94177
21.00 1.93316
21.50 1.92458
22.00 1.91489
22.50 1.90379
23.00 1.89272
23.50 1.88166
24.00 1.86762
24.50 1.85291
25.00 1.83823
25.50 1.82342
26.00 1.80600
26.50 1.78902
27.00 1.77221
27.50 1.75541
28.00 1.73767
28.50 1.71874
29.00 1.69967
29.50 1.67961
30.00 1.65957
30.50 1.63955
31.00 1.61766
31.50 1.59477
32.00 1.57405
32.50 1.55333
33.00 1.53260
33.50 1.51064
34.00 1.48705
34.50 1.46345
35.00 1.43907
35.50 1.41381
36.00 1.38855
36.50 1.36331
37.00 1.33778
37.50 1.31164
38.00 1.28609
38.50 1.26054
39.00 1.23499
39.50 1.20928
40.00 1.18346
40.50 1.15867
41.00 1.13389
41.50 1.10910
42.00 1.08401
42.50 1.05992
43.00 1.03652
43.50 1.01322
44.00 0.99021
44.50 0.96720
45.00 0.94397
45.50 0.92170
46.00 0.89995
46.50 0.87818
47.00 0.85720
47.50 0.83688
48.00 0.81548
48.50 0.79327
49.00 0.77322
49.50 0.75348
50.00 0.73338
50.50 0.71210
51.00 0.69299
51.50 0.67383
52.00 0.65461
52.50 0.63523
53.00 0.61290
53.50 0.59230
54.00 0.57244
54.50 0.55252
55.00 0.53253
55.50 0.51225
56.00 0.49007
56.50 0.46997
57.00 0.44978
57.50 0.42951
58.00 0.40922
58.50 0.38971
59.00 0.37012
59.50 0.34853
60.00 0.32685
60.50 0.30512
61.00 0.28332
61.50 0.26195
62.00 0.24605
62.50 0.23032
63.00 0.21454
63.50 0.19871
64.00 0.18283
64.50 0.16617
65.00 0.15523
65.50 0.14449
66.00 0.13376
66.50 0.12296
67.00 0.11204
67.50 0.10112
68.00 0.09242
68.50 0.08640
69.00 0.08038
69.50 0.07434
70.00 0.06820
70.50 0.06205
71.00 0.05590
71.50 0.05011
72.00 0.04653
72.50 0.04319
73.00 0.03985
73.50 0.03652
74.00 0.03319
74.50 0.02986
75.00 0.02747
75.50 0.02563
76.00 0.02378
76.50 0.02194
77.00 0.02011
77.50 0.01820
78.00 0.01629
78.50 0.01505
79.00 0.01407
79.50 0.01309
80.00 0.01210
80.50 0.01112
81.00 0.01014
81.50 0.00918
82.00 0.00849
82.50 0.00793
83.00 0.00739
83.50 0.00686
84.00 0.00633
84.50 0.00585
85.00 0.00557
85.50 0.00529
86.00 0.00501
86.50 0.00472
87.00 0.00442
87.50 0.00432
88.00 0.00421
88.50 0.00409
89.00 0.00397
89.50 0.00385
90.00 0.00373
90.00 0.00373
90.50 0.00385
91.00 0.00397
91.50 0.00409
92.00 0.00421
92.50 0.00432
93.00 0.00442
93.50 0.00472
94.00 0.00501
94.50 0.00529
95.00 0.00557
95.50 0.00585
96.00 0.00633
96.50 0.00686
97.00 0.00739
97.50 0.00793
98.00 0.00849
98.50 0.00918
99.00 0.01014
99.50 0.01112
100.00 0.01210
100.50 0.01309
101.00 0.01407
101.50 0.01505
102.00 0.01629
102.50 0.01820
103.00 0.02011
103.50 0.02194
104.00 0.02378
104.50 0.02563
105.00 0.02747
105.50 0.02986
106.00 0.03319
106.50 0.03652
107.00 0.03985
107.50 0.04319
108.00 0.04653
108.50 0.05011
109.00 0.05590
109.50 0.06205
110.00 0.06820
110.50 0.07434
111.00 0.08038
111.50 0.08640
112.00 0.09242
112.50 0.10112
113.00 0.11204
113.50 0.12296
114.00 0.13376
114.50 0.14449
115.00 0.15523
115.50 0.16617
116.00 0.18283
116.50 0.19871
117.00 0.21454
117.50 0.23032
118.00 0.24605
118.50 0.26195
119.00 0.28332
119.50 0.30512
120.00 0.32685
120.50 0.34853
121.00 0.37012
121.50 0.38971
122.00 0.40922
122.50 0.42951
123.00 0.44978
123.50 0.46997
124.00 0.49007
124.50 0.51225
125.00 0.53253
125.50 0.55252
126.00 0.57244
126.50 0.59230
127.00 0.61290
127.50 0.63523
128.00 0.65461
128.50 0.67383
129.00 0.69299
129.50 0.71210
130.00 0.73338
130.50 0.75348
131.00 0.77322
131.50 0.79327
132.00 0.81548
132.50 0.83688
133.00 0.85720
133.50 0.87818
134.00 0.89995
134.50 0.92170
135.00 0.94397
135.50 0.96720
136.00 0.99021
136.50 1.01322
137.00 1.03652
137.50 1.05992
138.00 1.08401
138.50 1.10910
139.00 1.13389
139.50 1.15867
140.00 1.18346
140.50 1.20928
141.00 1.23499
141.50 1.26054
142.00 1.28609
142.50 1.31164
143.00 1.33778
143.50 1.36331
144.00 1.38855
144.50 1.41381
145.00 1.43907
145.50 1.46345
146.00 1.48705
146.50 1.51064
147.00 1.53260
147.50 1.55333
148.00 1.57405
148.50 1.59477
149.00 1.61766
149.50 1.63955
150.00 1.65957
150.50 1.67961
151.00 1.69967
151.50 1.71874
152.00 1.73767
152.50 1.75541
153.00 1.77221
153.50 1.78902
154.00 1.80600
154.50 1.82342
155.00 1.83823
155.50 1.85291
156.00 1.86762
156.50 1.88166
157.00 1.89272
157.50 1.90379
158.00 1.91489
158.50 1.92458
159.00 1.93316
159.50 1.94177
160.00 1.94771
160.50 1.95192
161.00 1.95617
161.50 1.96266
162.00 1.96946
162.50 1.97632
163.00 1.97988
163.50 1.98240
164.00 1.98499
164.50 1.98766
165.00 1.99205
165.50 1.99711
166.00 1.99962
166.50 2.00125
167.00 2.00149
167.50 2.00161
168.00 2.00183
168.50 2.00216
169.00 2.00290
169.50 2.00428
170.00 2.00487
170.50 2.00292
171.00 2.00108
171.50 1.99937
172.00 1.99824
172.50 1.99757
173.00 1.99688
173.50 1.99468
174.00 1.99261
174.50 1.99069
175.00 1.98905
175.50 1.98755
176.00 1.98619
176.50 1.98497
177.00 1.98389
177.50 1.98368
178.00 1.98304
178.50 1.98261
179.00 1.98233
179.50 1.98221
180.00 1.98224
180.00 1.98224
180.50 1.98221
181.00 1.98233
181.50 1.98261
182.00 1.98304
182.50 1.98368
183.00 1.98389
183.50 1.98497
184.00 1.98619
184.50 1.98755
185.00 1.98905
185.50 1.99069
186.00 1.99261
186.50 1.99468
187.00 1.99688
187.50 1.99757
188.00 1.99824
188.50 1.99937
189.00 2.00108
189.50 2.00292
190.00 2.00487
190.50 2.00428
191.00 2.00290
191.50 2.00216
192.00 2.00183
192.50 2.00161
193.00 2.00149
193.50 2.00125
194.00 1.99962
194.50 1.99711
195.00 1.99205
195.50 1.98766
196.00 1.98499
196.50 1.98240
197.00 1.97988
197.50 1.97632
198.00 1.96946
198.50 1.96266
199.00 1.95617
199.50 1.95192
200.00 1.94771
200.50 1.94177
201.00 1.93316
201.50 1.92458
202.00 1.91489
202.50 1.90379
203.00 1.89272
203.50 1.88166
204.00 1.86762
204.50 1.85291
205.00 1.83823
205.50 1.82342
206.00 1.80600
206.50 1.78902
207.00 1.77221
207.50 1.75541
208.00 1.73767
208.50 1.71874
209.00 1.69967
209.50 1.67961
210.00 1.65957
210.50 1.63955
211.00 1.61766
211.50 1.59477
212.00 1.57405
212.50 1.55333
213.00 1.53260
213.50 1.51064
214.00 1.48705
214.50 1.46345
215.00 1.43907
215.50 1.41381
216.00 1.38855
216.50 1.36331
217.00 1.33778
217.50 1.31164
218.00 1.28609
218.50 1.26054
219.00 1.23499
219.50 1.20928
220.00 1.18346
220.50 1.15867
221.00 1.13389
221.50 1.10910
222.00 1.08401
222.50 1.05992
223.00 1.03652
223.50 1.01322
224.00 0.99021
224.50 0.96720
225.00 0.94397
225.50 0.92170
226.00 0.89995
226.50 0.87818
227.00 0.85720
227.50 0.83688
228.00 0.81548
228.50 0.79327
229.00 0.77322
229.50 0.75348
230.00 0.73338
230.50 0.71210
231.00 0.69299
231.50 0.67383
232.00 0.65461
232.50 0.63523
233.00 0.61290
233.50 0.59230
234.00 0.57244
234.50 0.55252
235.00 0.53253
235.50 0.51225
236.00 0.49007
236.50 0.46997
237.00 0.44978
237.50 0.42951
238.00 0.40922
238.50 0.38971
239.00 0.37012
239.50 0.34853
240.00 0.32685
240.50 0.30512
241.00 0.28332
241.50 0.26195
242.00 0.24605
242.50 0.23032
243.00 0.21454
243.50 0.19871
244.00 0.18283
244.50 0.16617
245.00 0.15523
245.50 0.14449
246.00 0.13376
246.50 0.12296
247.00 0.11204
247.50 0.10112
248.00 0.09242
248.50 0.08640
249.00 0.08038
249.50 0.07434
250.00 0.06820
250.50 0.06205
251.00 0.05590
251.50 0.05011
252.00 0.04653
252.50 0.04319
253.00 0.03985
253.50 0.03652
254.00 0.03319
254.50 0.02986
255.00 0.02747
255.50 0.02563
256.00 0.02378
256.50 0.02194
257.00 0.02011
257.50 0.01820
258.00 0.01629
258.50 0.01505
259.00 0.01407
259.50 0.01309
260.00 0.01210
260.50 0.01112
261.00 0.01014
261.50 0.00918
262.00 0.00849
262.50 0.00793
263.00 0.00739
263.50 0.00686
264.00 0.00633
264.50 0.00585
265.00 0.00557
265.50 0.00529
266.00 0.00501
266.50 0.00472
267.00 0.00442
267.50 0.00432
268.00 0.00421
268.50 0.00409
269.00 0.00397
269.50 0.00385
270.00 0.00373
270.00 0.00373
270.50 0.00385
271.00 0.00397
271.50 0.00409
272.00 0.00421
272.50 0.00432
273.00 0.00442
273.50 0.00472
274.00 0.00501
274.50 0.00529
275.00 0.00557
275.50 0.00585
276.00 0.00633
276.50 0.00686
277.00 0.00739
277.50 0.00793
278.00 0.00849
278.50 0.00918
279.00 0.01014
279.50 0.01112
280.00 0.01210
280.50 0.01309
281.00 0.01407
281.50 0.01505
282.00 0.01629
282.50 0.01820
283.00 0.02011
283.50 0.02194
284.00 0.02378
284.50 0.02563
285.00 0.02747
285.50 0.02986
286.00 0.03319
286.50 0.03652
287.00 0.03985
287.50 0.04319
288.00 0.04653
288.50 0.05011
289.00 0.05590
289.50 0.06205
290.00 0.06820
290.50 0.07434
291.00 0.08038
291.50 0.08640
292.00 0.09242
292.50 0.10112
293.00 0.11204
293.50 0.12296
294.00 0.13376
294.50 0.14449
295.00 0.15523
295.50 0.16617
296.00 0.18283
296.50 0.19871
297.00 0.21454
297.50 0.23032
298.00 0.24605
298.50 0.26195
299.00 0.28332
299.50 0.30512
300.00 0.32685
300.50 0.34853
301.00 0.37012
301.50 0.38971
302.00 0.40922
302.50 0.42951
303.00 0.44978
303.50 0.46997
304.00 0.49007
304.50 0.51225
305.00 0.53253
305.50 0.55252
306.00 0.57244
306.50 0.59230
307.00 0.61290
307.50 0.63523
308.00 0.65461
308.50 0.67383
309.00 0.69299
309.50 0.71210
310.00 0.73338
310.50 0.75348
311.00 0.77322
311.50 0.79327
312.00 0.81548
312.50 0.83688
313.00 0.85720
313.50 0.87818
314.00 0.89995
314.50 0.92170
315.00 0.94397
315.50 0.96720
316.00 0.99021
316.50 1.01322
317.00 1.03652
317.50 1.05992
318.00 1.08401
318.50 1.10910
319.00 1.13389
319.50 1.15867
320.00 1.18346
320.50 1.20928
321.00 1.23499
321.50 1.26054
322.00 1.28609
322.50 1.31164
323.00 1.33778
323.50 1.36331
324.00 1.38855
324.50 1.41381
325.00 1.43907
325.50 1.46345
326.00 1.48705
326.50 1.51064
327.00 1.53260
327.50 1.55333
328.00 1.57405
328.50 1.59477
329.00 1.61766
329.50 1.63955
330.00 1.65957
330.50 1.67961
331.00 1.69967
331.50 1.71874
332.00 1.73767
332.50 1.75541
333.00 1.77221
333.50 1.78902
334.00 1.80600
334.50 1.82342
335.00 1.83823
335.50 1.85291
336.00 1.86762
336.50 1.88166
337.00 1.89272
337.50 1.90379
338.00 1.91489
338.50 1.92458
339.00 1.93316
339.50 1.94177
340.00 1.94771
340.50 1.95192
341.00 1.95617
341.50 1.96266
342.00 1.96946
342.50 1.97632
343.00 1.97988
343.50 1.98240
344.00 1.98499
344.50 1.98766
345.00 1.99205
345.50 1.99711
346.00 1.99962
346.50 2.00125
347.00 2.00149
347.50 2.00161
348.00 2.00183
348.50 2.00216
349.00 2.00290
349.50 2.00428
350.00 2.00487
350.50 2.00292
351.00 2.00108
351.50 1.99937
352.00 1.99824
352.50 1.99757
353.00 1.99688
353.50 1.99468
354.00 1.99261
354.50 1.99069
355.00 1.98905
355.50 1.98755
356.00 1.98619
356.50 1.98497
357.00 1.98389
357.50 1.98368
358.00 1.98304
358.50 1.98261
359.00 1.98233
359.50 1.98221
360.00 1.98224
