phi[deg] B[T]
0.00 1.20450
0.50 1.20444
1.00 1.20450
1.50 1.20463
2.00 1.20485
2.50 1.20514
3.00 1.20550
3.50 1.20569
4.00 1.20591
4.50 1.20622
5.00 1.20659
5.50 1.20705
6.00 1.20724
6.50 1.20793
7.00 1.20869
7.50 1.20952
8.00 1.21042
8.50 1.21138
9.00 1.21142
9.50 1.21071
10.00 1.21005
10.50 1.20979
11.00 1.21072
11.50 1.21171
12.00 1.21275
12.50 1.21385
13.00 1.21500
13.50 1.21431
14.00 1.21274
14.50 1.21123
15.00 1.20976
15.50 1.20840
16.00 1.20923
16.50 1.21008
17.00 1.21092
17.50 1.21169
18.00 1.21144
18.50 1.20872
19.00 1.20598
19.50 1.20323
20.00 1.20047
20.50 1.19769
21.00 1.19524
21.50 1.19350
22.00 1.19174
22.50 1.18996
23.00 1.18817
23.50 1.18254
24.00 1.17379
24.50 1.16499
25.00 1.15615
25.50 1.14772
26.00 1.14211
26.50 1.13645
27.00 1.13074
27.50 1.12496
28.00 1.11913
28.50 1.10908
29.00 1.09576
29.50 1.08235
30.00 1.06886
30.50 1.05533
31.00 1.04284
31.50 1.03027
32.00 1.01762
32.50 1.00488
33.00 0.99205
33.50 0.97663
34.00 0.95800
34.50 0.93927
35.00 0.92151
35.50 0.90440
36.00 0.88717
36.50 0.86983
37.00 0.85239
37.50 0.83483
38.00 0.81543
38.50 0.79309
39.00 0.77063
39.50 0.74806
40.00 0.72538
40.50 0.70258
41.00 0.68278
41.50 0.66141
42.00 0.63572
42.50 0.61183
43.00 0.59027
43.50 0.56864
44.00 0.54692
44.50 0.52513
45.00 0.50326
45.50 0.48224
46.00 0.46114
46.50 0.43998
47.00 0.41874
47.50 0.39743
48.00 0.37543
48.50 0.35314
49.00 0.33350
49.50 0.31491
50.00 0.29846
50.50 0.28329
51.00 0.26811
51.50 0.25291
52.00 0.23772
52.50 0.22251
53.00 0.21189
53.50 0.20130
54.00 0.19070
54.50 0.18008
55.00 0.16945
55.50 0.15881
56.00 0.14816
56.50 0.13750
57.00 0.12759
57.50 0.11966
58.00 0.11359
58.50 0.10796
59.00 0.10233
59.50 0.09669
60.00 0.09105
60.50 0.08541
61.00 0.07977
61.50 0.07412
62.00 0.06887
62.50 0.06489
63.00 0.06091
63.50 0.05694
64.00 0.05354
64.50 0.05112
65.00 0.04870
65.50 0.04628
66.00 0.04386
66.50 0.04144
67.00 0.03901
67.50 0.03659
68.00 0.03417
68.50 0.03176
69.00 0.02946
69.50 0.02715
70.00 0.02485
70.50 0.02372
71.00 0.02268
71.50 0.02165
72.00 0.02062
72.50 0.01959
73.00 0.01858
73.50 0.01758
74.00 0.01658
74.50 0.01558
75.00 0.01458
75.50 0.01358
76.00 0.01258
76.50 0.01158
77.00 0.01092
77.50 0.01047
78.00 0.01001
78.50 0.00955
79.00 0.00910
79.50 0.00857
80.00 0.00805
80.50 0.00753
81.00 0.00701
81.50 0.00649
82.00 0.00621
82.50 0.00599
83.00 0.00578
83.50 0.00557
84.00 0.00536
84.50 0.00515
85.00 0.00494
85.50 0.00472
86.00 0.00451
86.50 0.00445
87.00 0.00436
87.50 0.00427
88.00 0.00418
88.50 0.00409
89.00 0.00401
89.50 0.00392
90.00 0.00383
90.00 0.00383
90.50 0.00392
91.00 0.00401
91.50 0.00409
92.00 0.00418
92.50 0.00427
93.00 0.00436
93.50 0.00445
94.00 0.00451
94.50 0.00472
95.00 0.00494
95.50 0.00515
96.00 0.00536
96.50 0.00557
97.00 0.00578
97.50 0.00599
98.00 0.00621
98.50 0.00649
99.00 0.00701
99.50 0.00753
100.00 0.00805
100.50 0.00857
101.00 0.00910
101.50 0.00955
102.00 0.01001
102.50 0.01047
103.00 0.01092
103.50 0.01158
104.00 0.01258
104.50 0.01358
105.00 0.01458
105.50 0.01558
106.00 0.01658
106.50 0.01758
107.00 0.01858
107.50 0.01959
108.00 0.02062
108.50 0.02165
109.00 0.02268
109.50 0.02372
110.00 0.02485
110.50 0.02715
111.00 0.02946
111.50 0.03176
112.00 0.03417
112.50 0.03659
113.00 0.03901
113.50 0.04144
114.00 0.04386
114.50 0.04628
115.00 0.04870
115.50 0.05112
116.00 0.05354
116.50 0.05694
117.00 0.06091
117.50 0.06489
118.00 0.06887
118.50 0.07412
119.00 0.07977
119.50 0.08541
120.00 0.09105
120.50 0.09669
121.00 0.10233
121.50 0.10796
122.00 0.11359
122.50 0.11966
123.00 0.12759
123.50 0.13750
124.00 0.14816
124.50 0.15881
125.00 0.16945
125.50 0.18008
126.00 0.19070
126.50 0.20130
127.00 0.21189
127.50 0.22251
128.00 0.23772
128.50 0.25291
129.00 0.26811
129.50 0.28329
130.00 0.29846
130.50 0.31491
131.00 0.33350
131.50 0.35314
132.00 0.37543
132.50 0.39743
133.00 0.41874
133.50 0.43998
134.00 0.46114
134.50 0.48224
135.00 0.50326
135.50 0.52513
136.00 0.54692
136.50 0.56864
137.00 0.59027
137.50 0.61183
138.00 0.63572
138.50 0.66141
139.00 0.68278
139.50 0.70258
140.00 0.72538
140.50 0.74806
141.00 0.77063
141.50 0.79309
142.00 0.81543
142.50 0.83483
143.00 0.85239
143.50 0.86983
144.00 0.88717
144.50 0.90440
145.00 0.92151
145.50 0.93927
146.00 0.95800
146.50 0.97663
147.00 0.99205
147.50 1.00488
148.00 1.01762
148.50 1.03027
149.00 1.04284
149.50 1.05533
150.00 1.06886
150.50 1.08235
151.00 1.09576
151.50 1.10908
152.00 1.11913
152.50 1.12496
153.00 1.13074
153.50 1.13645
154.00 1.14211
154.50 1.14772
155.00 1.15615
155.50 1.16499
156.00 1.17379
156.50 1.18254
157.00 1.18817
157.50 1.18996
158.00 1.19174
158.50 1.19350
159.00 1.19524
159.50 1.19769
160.00 1.20047
160.50 1.20323
161.00 1.20598
161.50 1.20872
162.00 1.21144
162.50 1.21169
163.00 1.21092
163.50 1.21008
164.00 1.20923
164.50 1.20840
165.00 1.20976
165.50 1.21123
166.00 1.21274
166.50 1.21431
167.00 1.21500
167.50 1.21385
168.00 1.21275
168.50 1.21171
169.00 1.21072
169.50 1.20979
170.00 1.21005
170.50 1.21071
171.00 1.21142
171.50 1.21138
172.00 1.21042
172.50 1.20952
173.00 1.20869
173.50 1.20793
174.00 1.20724
174.50 1.20705
175.00 1.20659
175.50 1.20622
176.00 1.20591
176.50 1.20569
177.00 1.20550
177.50 1.20514
178.00 1.20485
178.50 1.20463
179.00 1.20450
179.50 1.20444
180.00 1.20450
180.00 1.20450
180.50 1.20444
181.00 1.20450
181.50 1.20463
182.00 1.20485
182.50 1.20514
183.00 1.20550
183.50 1.20569
184.00 1.20591
184.50 1.20622
185.00 1.20659
185.50 1.20705
186.00 1.20724
186.50 1.20793
187.00 1.20869
187.50 1.20952
188.00 1.21042
188.50 1.21138
189.00 1.21142
189.50 1.21071
190.00 1.21005
190.50 1.20979
191.00 1.21072
191.50 1.21171
192.00 1.21275
192.50 1.21385
193.00 1.21500
193.50 1.21431
194.00 1.21274
194.50 1.21123
195.00 1.20976
195.50 1.20840
196.00 1.20923
196.50 1.21008
197.00 1.21092
197.50 1.21169
198.00 1.21144
198.50 1.20872
199.00 1.20598
199.50 1.20323
200.00 1.20047
200.50 1.19769
201.00 1.19524
201.50 1.19350
202.00 1.19174
202.50 1.18996
203.00 1.18817
203.50 1.18254
204.00 1.17379
204.50 1.16499
205.00 1.15615
205.50 1.14772
206.00 1.14211
206.50 1.13645
207.00 1.13074
207.50 1.12496
208.00 1.11913
208.50 1.10908
209.00 1.09576
209.50 1.08235
210.00 1.06886
210.50 1.05533
211.00 1.04284
211.50 1.03027
212.00 1.01762
212.50 1.00488
213.00 0.99205
213.50 0.97663
214.00 0.95800
214.50 0.93927
215.00 0.92151
215.50 0.90440
216.00 0.88717
216.50 0.86983
217.00 0.85239
217.50 0.83483
218.00 0.81543
218.50 0.79309
219.00 0.77063
219.50 0.74806
220.00 0.72538
220.50 0.70258
221.00 0.68278
221.50 0.66141
222.00 0.63572
222.50 0.61183
223.00 0.59027
223.50 0.56864
224.00 0.54692
224.50 0.52513
225.00 0.50326
225.50 0.48224
226.00 0.46114
226.50 0.43998
227.00 0.41874
227.50 0.39743
228.00 0.37543
228.50 0.35314
229.00 0.33350
229.50 0.31491
230.00 0.29846
230.50 0.28329
231.00 0.26811
231.50 0.25291
232.00 0.23772
232.50 0.22251
233.00 0.21189
233.50 0.20130
234.00 0.19070
234.50 0.18008
235.00 0.16945
235.50 0.15881
236.00 0.14816
236.50 0.13750
237.00 0.12759
237.50 0.11966
238.00 0.11359
238.50 0.10796
239.00 0.10233
239.50 0.09669
240.00 0.09105
240.50 0.08541
241.00 0.07977
241.50 0.07412
242.00 0.06887
242.50 0.06489
243.00 0.06091
243.50 0.05694
244.00 0.05354
244.50 0.05112
245.00 0.04870
245.50 0.04628
246.00 0.04386
246.50 0.04144
247.00 0.03901
247.50 0.03659
248.00 0.03417
248.50 0.03176
249.00 0.02946
249.50 0.02715
250.00 0.02485
250.50 0.02372
251.00 0.02268
251.50 0.02165
252.00 0.02062
252.50 0.01959
253.00 0.01858
253.50 0.01758
254.00 0.01658
254.50 0.01558
255.00 0.01458
255.50 0.01358
256.00 0.01258
256.50 0.01158
257.00 0.01092
257.50 0.01047
258.00 0.01001
258.50 0.00955
259.00 0.00910
259.50 0.00857
260.00 0.00805
260.50 0.00753
261.00 0.00701
261.50 0.00649
262.00 0.00621
262.50 0.00599
263.00 0.00578
263.50 0.00557
264.00 0.00536
264.50 0.00515
265.00 0.00494
265.50 0.00472
266.00 0.00451
266.50 0.00445
267.00 0.00436
267.50 0.00427
268.00 0.00418
268.50 0.00409
269.00 0.00401
269.50 0.00392
270.00 0.00383
270.00 0.00383
270.50 0.00392
271.00 0.00401
271.50 0.00409
272.00 0.00418
272.50 0.00427
273.00 0.00436
273.50 0.00445
274.00 0.00451
274.50 0.00472
275.00 0.00494
275.50 0.00515
276.00 0.00536
276.50 0.00557
277.00 0.00578
277.50 0.00599
278.00 0.00621
278.50 0.00649
279.00 0.00701
279.50 0.00753
280.00 0.00805
280.50 0.00857
281.00 0.00910
281.50 0.00955
282.00 0.01001
282.50 0.01047
283.00 0.01092
283.50 0.01158
284.00 0.01258
284.50 0.01358
285.00 0.01458
285.50 0.01558
286.00 0.01658
286.50 0.01758
287.00 0.01858
287.50 0.01959
288.00 0.02062
288.50 0.02165
289.00 0.02268
289.50 0.02372
290.00 0.02485
290.50 0.02715
291.00 0.02946
291.50 0.03176
292.00 0.03417
292.50 0.03659
293.00 0.03901
293.50 0.04144
294.00 0.04386
294.50 0.04628
295.00 0.04870
295.50 0.05112
296.00 0.05354
296.50 0.05694
297.00 0.06091
297.50 0.06489
298.00 0.06887
298.50 0.07412
299.00 0.07977
299.50 0.08541
300.00 0.09105
300.50 0.09669
301.00 0.10233
301.50 0.10796
302.00 0.11359
302.50 0.11966
303.00 0.12759
303.50 0.13750
304.00 0.14816
304.50 0.15881
305.00 0.16945
305.50 0.18008
306.00 0.19070
306.50 0.20130
307.00 0.21189
307.50 0.22251
308.00 0.23772
308.50 0.25291
309.00 0.26811
309.50 0.28329
310.00 0.29846
310.50 0.31491
311.00 0.33350
311.50 0.35314
312.00 0.37543
312.50 0.39743
313.00 0.41874
313.50 0.43998
314.00 0.46114
314.50 0.48224
315.00 0.50326
315.50 0.52513
316.00 0.54692
316.50 0.56864
317.00 0.59027
317.50 0.61183
318.00 0.63572
318.50 0.66141
319.00 0.68278
319.50 0.70258
320.00 0.72538
320.50 0.74806
321.00 0.77063
321.50 0.79309
322.00 0.81543
322.50 0.83483
323.00 0.85239
323.50 0.86983
324.00 0.88717
324.50 0.90440
325.00 0.92151
325.50 0.93927
326.00 0.95800
326.50 0.97663
327.00 0.99205
327.50 1.00488
328.00 1.01762
328.50 1.03027
329.00 1.04284
329.50 1.05533
330.00 1.06886
330.50 1.08235
331.00 1.09576
331.50 1.10908
332.00 1.11913
332.50 1.12496
333.00 1.13074
333.50 1.13645
334.00 1.14211
334.50 1.14772
335.00 1.15615
335.50 1.16499
336.00 1.17379
336.50 1.18254
337.00 1.18817
337.50 1.18996
338.00 1.19174
338.50 1.19350
339.00 1.19524
339.50 1.19769
340.00 1.20047
340.50 1.20323
341.00 1.20598
341.50 1.20872
342.00 1.21144
342.50 1.21169
343.00 1.21092
343.50 1.21008
344.00 1.20923
344.50 1.20840
345.00 1.20976
345.50 1.21123
346.00 1.21274
346.50 1.21431
347.00 1.21500
347.50 1.21385
348.00 1.21275
348.50 1.21171
349.00 1.21072
349.50 1.20979
350.00 1.21005
350.50 1.21071
351.00 1.21142
351.50 1.21138
352.00 1.21042
352.50 1.20952
353.00 1.20869
353.50 1.20793
354.00 1.20724
354.50 1.20705
355.00 1.20659
355.50 1.20622
356.00 1.20591
356.50 1.20569
357.00 1.20550
357.50 1.20514
358.00 1.20485
358.50 1.20463
359.00 1.20450
359.50 1.20444
360.00 1.20450
