phi[deg] B[T]
0.00 2.02830
0.50 2.02803
1.00 2.02799
1.50 2.02808
2.00 2.02830
2.50 2.02867
3.00 2.02796
3.50 2.02715
4.00 2.02647
4.50 2.02593
5.00 2.02573
5.50 2.02598
6.00 2.02596
6.50 2.02515
7.00 2.02447
7.50 2.02391
8.00 2.02348
8.50 2.02310
9.00 2.02263
9.50 2.02194
10.00 2.02109
10.50 2.02035
11.00 2.01965
11.50 2.01670
12.00 2.01385
12.50 2.01113
13.00 2.00907
13.50 2.00816
14.00 2.00443
14.50 2.00072
15.00 1.99710
15.50 1.99357
16.00 1.99024
16.50 1.98540
17.00 1.98072
17.50 1.97610
18.00 1.97155
18.50 1.96706
19.00 1.96152
19.50 1.95396
20.00 1.94647
20.50 1.93905
21.00 1.93170
21.50 1.92176
22.00 1.91264
22.50 1.90354
23.00 1.89446
23.50 1.88462
24.00 1.87009
24.50 1.85560
25.00 1.84114
25.50 1.82620
26.00 1.80917
26.50 1.79217
27.00 1.77570
27.50 1.75924
28.00 1.74279
28.50 1.72512
29.00 1.70560
29.50 1.68610
30.00 1.66661
30.50 1.64591
31.00 1.62422
31.50 1.60394
32.00 1.58405
32.50 1.56416
33.00 1.54427
33.50 1.52066
34.00 1.49694
34.50 1.47322
35.00 1.44951
35.50 1.42564
36.00 1.40080
36.50 1.37489
37.00 1.34877
37.50 1.32279
38.00 1.29799
38.50 1.27315
39.00 1.24840
39.50 1.22320
40.00 1.19737
40.50 1.17150
41.00 1.14574
41.50 1.11997
42.00 1.09409
42.50 1.06948
43.00 1.04484
43.50 1.01996
44.00 0.99483
44.50 0.96967
45.00 0.94434
45.50 0.91954
46.00 0.89537
46.50 0.87114
47.00 0.84682
47.50 0.82239
48.00 0.79791
48.50 0.77301
49.00 0.74851
49.50 0.72495
50.00 0.70132
50.50 0.67766
51.00 0.65415
51.50 0.63058
52.00 0.60696
52.50 0.58337
53.00 0.56164
53.50 0.53992
54.00 0.51811
54.50 0.49634
55.00 0.47455
55.50 0.45270
56.00 0.43082
56.50 0.41067
57.00 0.39106
57.50 0.37167
58.00 0.35219
58.50 0.33264
59.00 0.31301
59.50 0.29331
60.00 0.27333
60.50 0.25699
61.00 0.24180
61.50 0.22657
62.00 0.21131
62.50 0.19600
63.00 0.18066
63.50 0.16529
64.00 0.15052
64.50 0.14097
65.00 0.13142
65.50 0.12187
66.00 0.11231
66.50 0.10275
67.00 0.09320
67.50 0.08435
68.00 0.07727
68.50 0.07205
69.00 0.06684
69.50 0.06162
70.00 0.05641
70.50 0.05121
71.00 0.04606
71.50 0.04209
72.00 0.03921
72.50 0.03636
73.00 0.03350
73.50 0.03063
74.00 0.02770
74.50 0.02505
75.00 0.02336
75.50 0.02167
76.00 0.01996
76.50 0.01825
77.00 0.01655
77.50 0.01519
78.00 0.01414
78.50 0.01320
79.00 0.01227
79.50 0.01134
80.00 0.01041
80.50 0.00948
81.00 0.00856
81.50 0.00794
82.00 0.00742
82.50 0.00699
83.00 0.00655
83.50 0.00612
84.00 0.00567
84.50 0.00521
85.00 0.00489
85.50 0.00469
86.00 0.00446
86.50 0.00423
87.00 0.00400
87.50 0.00380
88.00 0.00374
88.50 0.00367
89.00 0.00357
89.50 0.00348
90.00 0.00339
90.00 0.00339
90.50 0.00348
91.00 0.00357
91.50 0.00367
92.00 0.00374
92.50 0.00380
93.00 0.00400
93.50 0.00423
94.00 0.00446
94.50 0.00469
95.00 0.00489
95.50 0.00521
96.00 0.00567
96.50 0.00612
97.00 0.00655
97.50 0.00699
98.00 0.00742
98.50 0.00794
99.00 0.00856
99.50 0.00948
100.00 0.01041
100.50 0.01134
101.00 0.01227
101.50 0.01320
102.00 0.01414
102.50 0.01519
103.00 0.01655
103.50 0.01825
104.00 0.01996
104.50 0.02167
105.00 0.02336
105.50 0.02505
106.00 0.02770
106.50 0.03063
107.00 0.03350
107.50 0.03636
108.00 0.03921
108.50 0.04209
109.00 0.04606
109.50 0.05121
110.00 0.05641
110.50 0.06162
111.00 0.06684
111.50 0.07205
112.00 0.07727
112.50 0.08435
113.00 0.09320
113.50 0.10275
114.00 0.11231
114.50 0.12187
115.00 0.13142
115.50 0.14097
116.00 0.15052
116.50 0.16529
117.00 0.18066
117.50 0.19600
118.00 0.21131
118.50 0.22657
119.00 0.24180
119.50 0.25699
120.00 0.27333
120.50 0.29331
121.00 0.31301
121.50 0.33264
122.00 0.35219
122.50 0.37167
123.00 0.39106
123.50 0.41067
124.00 0.43082
124.50 0.45270
125.00 0.47455
125.50 0.49634
126.00 0.51811
126.50 0.53992
127.00 0.56164
127.50 0.58337
128.00 0.60696
128.50 0.63058
129.00 0.65415
129.50 0.67766
130.00 0.70132
130.50 0.72495
131.00 0.74851
131.50 0.77301
132.00 0.79791
132.50 0.82239
133.00 0.84682
133.50 0.87114
134.00 0.89537
134.50 0.91954
135.00 0.94434
135.50 0.96967
136.00 0.99483
136.50 1.01996
137.00 1.04484
137.50 1.06948
138.00 1.09409
138.50 1.11997
139.00 1.14574
139.50 1.17150
140.00 1.19737
140.50 1.22320
141.00 1.24840
141.50 1.27315
142.00 1.29799
142.50 1.32279
143.00 1.34877
143.50 1.37489
144.00 1.40080
144.50 1.42564
145.00 1.44951
145.50 1.47322
146.00 1.49694
146.50 1.52066
147.00 1.54427
147.50 1.56416
148.00 1.58405
148.50 1.60394
149.00 1.62422
149.50 1.64591
150.00 1.66661
150.50 1.68610
151.00 1.70560
151.50 1.72512
152.00 1.74279
152.50 1.75924
153.00 1.77570
153.50 1.79217
154.00 1.80917
154.50 1.82620
155.00 1.84114
155.50 1.85560
156.00 1.87009
156.50 1.88462
157.00 1.89446
157.50 1.90354
158.00 1.91264
158.50 1.92176
159.00 1.93170
159.50 1.93905
160.00 1.94647
160.50 1.95396
161.00 1.96152
161.50 1.96706
162.00 1.97155
162.50 1.97610
163.00 1.98072
163.50 1.98540
164.00 1.99024
164.50 1.99357
165.00 1.99710
165.50 2.00072
166.00 2.00443
166.50 2.00816
167.00 2.00907
167.50 2.01113
168.00 2.01385
168.50 2.01670
169.00 2.01965
169.50 2.02035
170.00 2.02109
170.50 2.02194
171.00 2.02263
171.50 2.02310
172.00 2.02348
172.50 2.02391
173.00 2.02447
173.50 2.02515
174.00 2.02596
174.50 2.02598
175.00 2.02573
175.50 2.02593
176.00 2.02647
176.50 2.02715
177.00 2.02796
177.50 2.02867
178.00 2.02830
178.50 2.02808
179.00 2.02799
179.50 2.02803
180.00 2.02830
180.00 2.02830
180.50 2.02803
181.00 2.02799
181.50 2.02808
182.00 2.02830
182.50 2.02867
183.00 2.02796
183.50 2.02715
184.00 2.02647
184.50 2.02593
185.00 2.02573
185.50 2.02598
186.00 2.02596
186.50 2.02515
187.00 2.02447
187.50 2.02391
188.00 2.02348
188.50 2.02310
189.00 2.02263
189.50 2.02194
190.00 2.02109
190.50 2.02035
191.00 2.01965
191.50 2.01670
192.00 2.01385
192.50 2.01113
193.00 2.00907
193.50 2.00816
194.00 2.00443
194.50 2.00072
195.00 1.99710
195.50 1.99357
196.00 1.99024
196.50 1.98540
197.00 1.98072
197.50 1.97610
198.00 1.97155
198.50 1.96706
199.00 1.96152
199.50 1.95396
200.00 1.94647
200.50 1.93905
201.00 1.93170
201.50 1.92176
202.00 1.91264
202.50 1.90354
203.00 1.89446
203.50 1.88462
204.00 1.87009
204.50 1.85560
205.00 1.84114
205.50 1.82620
206.00 1.80917
206.50 1.79217
207.00 1.77570
207.50 1.75924
208.00 1.74279
208.50 1.72512
209.00 1.70560
209.50 1.68610
210.00 1.66661
210.50 1.64591
211.00 1.62422
211.50 1.60394
212.00 1.58405
212.50 1.56416
213.00 1.54427
213.50 1.52066
214.00 1.49694
214.50 1.47322
215.00 1.44951
215.50 1.42564
216.00 1.40080
216.50 1.37489
217.00 1.34877
217.50 1.32279
218.00 1.29799
218.50 1.27315
219.00 1.24840
219.50 1.22320
220.00 1.19737
220.50 1.17150
221.00 1.14574
221.50 1.11997
222.00 1.09409
222.50 1.06948
223.00 1.04484
223.50 1.01996
224.00 0.99483
224.50 0.96967
225.00 0.94434
225.50 0.91954
226.00 0.89537
226.50 0.87114
227.00 0.84682
227.50 0.82239
228.00 0.79791
228.50 0.77301
229.00 0.74851
229.50 0.72495
230.00 0.70132
230.50 0.67766
231.00 0.65415
231.50 0.63058
232.00 0.60696
232.50 0.58337
233.00 0.56164
233.50 0.53992
234.00 0.51811
234.50 0.49634
235.00 0.47455
235.50 0.45270
236.00 0.43082
236.50 0.41067
237.00 0.39106
237.50 0.37167
238.00 0.35219
238.50 0.33264
239.00 0.31301
239.50 0.29331
240.00 0.27333
240.50 0.25699
241.00 0.24180
241.50 0.22657
242.00 0.21131
242.50 0.19600
243.00 0.18066
243.50 0.16529
244.00 0.15052
244.50 0.14097
245.00 0.13142
245.50 0.12187
246.00 0.11231
246.50 0.10275
247.00 0.09320
247.50 0.08435
248.00 0.07727
248.50 0.07205
249.00 0.06684
249.50 0.06162
250.00 0.05641
250.50 0.05121
251.00 0.04606
251.50 0.04209
252.00 0.03921
252.50 0.03636
253.00 0.03350
253.50 0.03063
254.00 0.02770
254.50 0.02505
255.00 0.02336
255.50 0.02167
256.00 0.01996
256.50 0.01825
257.00 0.01655
257.50 0.01519
258.00 0.01414
258.50 0.01320
259.00 0.01227
259.50 0.01134
260.00 0.01041
260.50 0.00948
261.00 0.00856
261.50 0.00794
262.00 0.00742
262.50 0.00699
263.00 0.00655
263.50 0.00612
264.00 0.00567
264.50 0.00521
265.00 0.00489
265.50 0.00469
266.00 0.00446
266.50 0.00423
267.00 0.00400
267.50 0.00380
268.00 0.00374
268.50 0.00367
269.00 0.00357
269.50 0.00348
270.00 0.00339
270.00 0.00339
270.50 0.00348
271.00 0.00357
271.50 0.00367
272.00 0.00374
272.50 0.00380
273.00 0.00400
273.50 0.00423
274.00 0.00446
274.50 0.00469
275.00 0.00489
275.50 0.00521
276.00 0.00567
276.50 0.00612
277.00 0.00655
277.50 0.00699
278.00 0.00742
278.50 0.00794
279.00 0.00856
279.50 0.00948
280.00 0.01041
280.50 0.01134
281.00 0.01227
281.50 0.01320
282.00 0.01414
282.50 0.01519
283.00 0.01655
283.50 0.01825
284.00 0.01996
284.50 0.02167
285.00 0.02336
285.50 0.02505
286.00 0.02770
286.50 0.03063
287.00 0.03350
287.50 0.03636
288.00 0.03921
288.50 0.04209
289.00 0.04606
289.50 0.05121
290.00 0.05641
290.50 0.06162
291.00 0.06684
291.50 0.07205
292.00 0.07727
292.50 0.08435
293.00 0.09320
293.50 0.10275
294.00 0.11231
294.50 0.12187
295.00 0.13142
295.50 0.14097
296.00 0.15052
296.50 0.16529
297.00 0.18066
297.50 0.19600
298.00 0.21131
298.50 0.22657
299.00 0.24180
299.50 0.25699
300.00 0.27333
300.50 0.29331
301.00 0.31301
301.50 0.33264
302.00 0.35219
302.50 0.37167
303.00 0.39106
303.50 0.41067
304.00 0.43082
304.50 0.45270
305.00 0.47455
305.50 0.49634
306.00 0.51811
306.50 0.53992
307.00 0.56164
307.50 0.58337
308.00 0.60696
308.50 0.63058
309.00 0.65415
309.50 0.67766
310.00 0.70132
310.50 0.72495
311.00 0.74851
311.50 0.77301
312.00 0.79791
312.50 0.82239
313.00 0.84682
313.50 0.87114
314.00 0.89537
314.50 0.91954
315.00 0.94434
315.50 0.96967
316.00 0.99483
316.50 1.01996
317.00 1.04484
317.50 1.06948
318.00 1.09409
318.50 1.11997
319.00 1.14574
319.50 1.17150
320.00 1.19737
320.50 1.22320
321.00 1.24840
321.50 1.27315
322.00 1.29799
322.50 1.32279
323.00 1.34877
323.50 1.37489
324.00 1.40080
324.50 1.42564
325.00 1.44951
325.50 1.47322
326.00 1.49694
326.50 1.52066
327.00 1.54427
327.50 1.56416
328.00 1.58405
328.50 1.60394
329.00 1.62422
329.50 1.64591
330.00 1.66661
330.50 1.68610
331.00 1.70560
331.50 1.72512
332.00 1.74279
332.50 1.75924
333.00 1.77570
333.50 1.79217
334.00 1.80917
334.50 1.82620
335.00 1.84114
335.50 1.85560
336.00 1.87009
336.50 1.88462
337.00 1.89446
337.50 1.90354
338.00 1.91264
338.50 1.92176
339.00 1.93170
339.50 1.93905
340.00 1.94647
340.50 1.95396
341.00 1.96152
341.50 1.96706
342.00 1.97155
342.50 1.97610
343.00 1.98072
343.50 1.98540
344.00 1.99024
344.50 1.99357
345.00 1.99710
345.50 2.00072
346.00 2.00443
346.50 2.00816
347.00 2.00907
347.50 2.01113
348.00 2.01385
348.50 2.01670
349.00 2.01965
349.50 2.02035
350.00 2.02109
350.50 2.02194
351.00 2.02263
351.50 2.02310
352.00 2.02348
352.50 2.02391
353.00 2.02447
353.50 2.02515
354.00 2.02596
354.50 2.02598
355.00 2.02573
355.50 2.02593
356.00 2.02647
356.50 2.02715
357.00 2.02796
357.50 2.02867
358.00 2.02830
358.50 2.02808
359.00 2.02799
359.50 2.02803
360.00 2.02830
