phi[deg] B[T]
0.00 1.55822
0.50 1.55798
1.00 1.55785
1.50 1.55780
2.00 1.55748
2.50 1.55697
3.00 1.55615
3.50 1.55529
4.00 1.55480
4.50 1.55438
5.00 1.55227
5.50 1.54989
6.00 1.54826
6.50 1.54771
7.00 1.54680
7.50 1.54319
8.00 1.53963
8.50 1.53612
9.00 1.53267
9.50 1.52767
10.00 1.52299
10.50 1.51833
11.00 1.51368
11.50 1.50903
12.00 1.50546
12.50 1.49944
13.00 1.48992
13.50 1.48038
14.00 1.47083
14.50 1.46209
15.00 1.45124
15.50 1.43965
16.00 1.42800
16.50 1.41631
17.00 1.40691
17.50 1.39254
18.00 1.37511
18.50 1.35760
19.00 1.34008
19.50 1.32103
20.00 1.30009
20.50 1.27938
21.00 1.25904
21.50 1.23855
22.00 1.21818
22.50 1.19155
23.00 1.16569
23.50 1.14001
24.00 1.11420
24.50 1.08809
25.00 1.05489
25.50 1.02156
26.00 0.98865
26.50 0.95792
27.00 0.92695
27.50 0.89618
28.00 0.86120
28.50 0.82659
29.00 0.79174
29.50 0.75665
30.00 0.72133
30.50 0.68394
31.00 0.64159
31.50 0.59943
32.00 0.56338
32.50 0.52716
33.00 0.49077
33.50 0.45423
34.00 0.41641
34.50 0.37903
35.00 0.34722
35.50 0.32032
36.00 0.29337
36.50 0.26640
37.00 0.23939
37.50 0.21686
38.00 0.19733
38.50 0.17777
39.00 0.15857
39.50 0.14277
40.00 0.13100
40.50 0.11921
41.00 0.10741
41.50 0.09559
42.00 0.08437
42.50 0.07735
43.00 0.07084
43.50 0.06432
44.00 0.05780
44.50 0.05128
45.00 0.04476
45.50 0.04108
46.00 0.03740
46.50 0.03372
47.00 0.03004
47.50 0.02651
48.00 0.02441
48.50 0.02229
49.00 0.02016
49.50 0.01804
50.00 0.01592
50.50 0.01433
51.00 0.01287
51.50 0.01169
52.00 0.01073
52.50 0.00978
53.00 0.00882
53.50 0.00786
54.00 0.00697
54.50 0.00611
55.00 0.00567
55.50 0.00523
56.00 0.00480
56.50 0.00437
57.00 0.00393
57.50 0.00350
58.00 0.00307
58.50 0.00282
59.00 0.00262
59.50 0.00242
60.00 0.00222
60.50 0.00201
61.00 0.00181
61.50 0.00160
62.00 0.00140
62.50 0.00130
63.00 0.00121
63.50 0.00112
64.00 0.00102
64.50 0.00093
65.00 0.00084
65.50 0.00077
66.00 0.00073
66.50 0.00069
67.00 0.00065
67.50 0.00061
68.00 0.00057
68.50 0.00053
69.00 0.00050
69.50 0.00048
70.00 0.00046
70.50 0.00044
71.00 0.00042
71.50 0.00040
72.00 0.00038
72.50 0.00036
73.00 0.00034
73.50 0.00033
74.00 0.00032
74.50 0.00031
75.00 0.00029
75.50 0.00028
76.00 0.00027
76.50 0.00026
77.00 0.00025
77.50 0.00024
78.00 0.00023
78.50 0.00022
79.00 0.00021
79.50 0.00020
80.00 0.00019
80.50 0.00018
81.00 0.00017
81.50 0.00016
82.00 0.00015
82.50 0.00014
83.00 0.00013
83.50 0.00012
84.00 0.00011
84.50 0.00010
85.00 0.00010
85.50 0.00009
86.00 0.00008
86.50 0.00007
87.00 0.00006
87.50 0.00005
88.00 0.00004
88.50 0.00004
89.00 0.00003
89.50 0.00003
90.00 0.00003
90.00 0.00003
90.50 0.00003
91.00 0.00003
91.50 0.00004
92.00 0.00004
92.50 0.00005
93.00 0.00006
93.50 0.00007
94.00 0.00008
94.50 0.00009
95.00 0.00010
95.50 0.00010
96.00 0.00011
96.50 0.00012
97.00 0.00013
97.50 0.00014
98.00 0.00015
98.50 0.00016
99.00 0.00017
99.50 0.00018
100.00 0.00019
100.50 0.00020
101.00 0.00021
101.50 0.00022
102.00 0.00023
102.50 0.00024
103.00 0.00025
103.50 0.00026
104.00 0.00027
104.50 0.00028
105.00 0.00029
105.50 0.00031
106.00 0.00032
106.50 0.00033
107.00 0.00034
107.50 0.00036
108.00 0.00038
108.50 0.00040
109.00 0.00042
109.50 0.00044
110.00 0.00046
110.50 0.00048
111.00 0.00050
111.50 0.00053
112.00 0.00057
112.50 0.00061
113.00 0.00065
113.50 0.00069
114.00 0.00073
114.50 0.00077
115.00 0.00084
115.50 0.00093
116.00 0.00102
116.50 0.00112
117.00 0.00121
117.50 0.00130
118.00 0.00140
118.50 0.00160
119.00 0.00181
119.50 0.00201
120.00 0.00222
120.50 0.00242
121.00 0.00262
121.50 0.00282
122.00 0.00307
122.50 0.00350
123.00 0.00393
123.50 0.00437
124.00 0.00480
124.50 0.00523
125.00 0.00567
125.50 0.00611
126.00 0.00697
126.50 0.00786
127.00 0.00882
127.50 0.00978
128.00 0.01073
128.50 0.01169
129.00 0.01287
129.50 0.01433
130.00 0.01592
130.50 0.01804
131.00 0.02016
131.50 0.02229
132.00 0.02441
132.50 0.02651
133.00 0.03004
133.50 0.03372
134.00 0.03740
134.50 0.04108
135.00 0.04476
135.50 0.05128
136.00 0.05780
136.50 0.06432
137.00 0.07084
137.50 0.07735
138.00 0.08437
138.50 0.09559
139.00 0.10741
139.50 0.11921
140.00 0.13100
140.50 0.14277
141.00 0.15857
141.50 0.17777
142.00 0.19733
142.50 0.21686
143.00 0.23939
143.50 0.26640
144.00 0.29337
144.50 0.32032
145.00 0.34722
145.50 0.37903
146.00 0.41641
146.50 0.45423
147.00 0.49077
147.50 0.52716
148.00 0.56338
148.50 0.59943
149.00 0.64159
149.50 0.68394
150.00 0.72133
150.50 0.75665
151.00 0.79174
151.50 0.82659
152.00 0.86120
152.50 0.89618
153.00 0.92695
153.50 0.95792
154.00 0.98865
154.50 1.02156
155.00 1.05489
155.50 1.08809
156.00 1.11420
156.50 1.14001
157.00 1.16569
157.50 1.19155
158.00 1.21818
158.50 1.23855
159.00 1.25904
159.50 1.27938
160.00 1.30009
160.50 1.32103
161.00 1.34008
161.50 1.35760
162.00 1.37511
162.50 1.39254
163.00 1.40691
163.50 1.41631
164.00 1.42800
164.50 1.43965
165.00 1.45124
165.50 1.46209
166.00 1.47083
166.50 1.48038
167.00 1.48992
167.50 1.49944
168.00 1.50546
168.50 1.50903
169.00 1.51368
169.50 1.51833
170.00 1.52299
170.50 1.52767
171.00 1.53267
171.50 1.53612
172.00 1.53963
172.50 1.54319
173.00 1.54680
173.50 1.54771
174.00 1.54826
174.50 1.54989
175.00 1.55227
175.50 1.55438
176.00 1.55480
176.50 1.55529
177.00 1.55615
177.50 1.55697
178.00 1.55748
178.50 1.55780
179.00 1.55785
179.50 1.55798
180.00 1.55822
180.00 1.55822
180.50 1.55798
181.00 1.55785
181.50 1.55780
182.00 1.55748
182.50 1.55697
183.00 1.55615
183.50 1.55529
184.00 1.55480
184.50 1.55438
185.00 1.55227
185.50 1.54989
186.00 1.54826
186.50 1.54771
187.00 1.54680
187.50 1.54319
188.00 1.53963
188.50 1.53612
189.00 1.53267
189.50 1.52767
190.00 1.52299
190.50 1.51833
191.00 1.51368
191.50 1.50903
192.00 1.50546
192.50 1.49944
193.00 1.48992
193.50 1.48038
194.00 1.47083
194.50 1.46209
195.00 1.45124
195.50 1.43965
196.00 1.42800
196.50 1.41631
197.00 1.40691
197.50 1.39254
198.00 1.37511
198.50 1.35760
199.00 1.34008
199.50 1.32103
200.00 1.30009
200.50 1.27938
201.00 1.25904
201.50 1.23855
202.00 1.21818
202.50 1.19155
203.00 1.16569
203.50 1.14001
204.00 1.11420
204.50 1.08809
205.00 1.05489
205.50 1.02156
206.00 0.98865
206.50 0.95792
207.00 0.92695
207.50 0.89618
208.00 0.86120
208.50 0.82659
209.00 0.79174
209.50 0.75665
210.00 0.72133
210.50 0.68394
211.00 0.64159
211.50 0.59943
212.00 0.56338
212.50 0.52716
213.00 0.49077
213.50 0.45423
214.00 0.41641
214.50 0.37903
215.00 0.34722
215.50 0.32032
216.00 0.29337
216.50 0.26640
217.00 0.23939
217.50 0.21686
218.00 0.19733
218.50 0.17777
219.00 0.15857
219.50 0.14277
220.00 0.13100
220.50 0.11921
221.00 0.10741
221.50 0.09559
222.00 0.08437
222.50 0.07735
223.00 0.07084
223.50 0.06432
224.00 0.05780
224.50 0.05128
225.00 0.04476
225.50 0.04108
226.00 0.03740
226.50 0.03372
227.00 0.03004
227.50 0.02651
228.00 0.02441
228.50 0.02229
229.00 0.02016
229.50 0.01804
230.00 0.01592
230.50 0.01433
231.00 0.01287
231.50 0.01169
232.00 0.01073
232.50 0.00978
233.00 0.00882
233.50 0.00786
234.00 0.00697
234.50 0.00611
235.00 0.00567
235.50 0.00523
236.00 0.00480
236.50 0.00437
237.00 0.00393
237.50 0.00350
238.00 0.00307
238.50 0.00282
239.00 0.00262
239.50 0.00242
240.00 0.00222
240.50 0.00201
241.00 0.00181
241.50 0.00160
242.00 0.00140
242.50 0.00130
243.00 0.00121
243.50 0.00112
244.00 0.00102
244.50 0.00093
245.00 0.00084
245.50 0.00077
246.00 0.00073
246.50 0.00069
247.00 0.00065
247.50 0.00061
248.00 0.00057
248.50 0.00053
249.00 0.00050
249.50 0.00048
250.00 0.00046
250.50 0.00044
251.00 0.00042
251.50 0.00040
252.00 0.00038
252.50 0.00036
253.00 0.00034
253.50 0.00033
254.00 0.00032
254.50 0.00031
255.00 0.00029
255.50 0.00028
256.00 0.00027
256.50 0.00026
257.00 0.00025
257.50 0.00024
258.00 0.00023
258.50 0.00022
259.00 0.00021
259.50 0.00020
260.00 0.00019
260.50 0.00018
261.00 0.00017
261.50 0.00016
262.00 0.00015
262.50 0.00014
263.00 0.00013
263.50 0.00012
264.00 0.00011
264.50 0.00010
265.00 0.00010
265.50 0.00009
266.00 0.00008
266.50 0.00007
267.00 0.00006
267.50 0.00005
268.00 0.00004
268.50 0.00004
269.00 0.00003
269.50 0.00003
270.00 0.00003
270.00 0.00003
270.50 0.00003
271.00 0.00003
271.50 0.00004
272.00 0.00004
272.50 0.00005
273.00 0.00006
273.50 0.00007
274.00 0.00008
274.50 0.00009
275.00 0.00010
275.50 0.00010
276.00 0.00011
276.50 0.00012
277.00 0.00013
277.50 0.00014
278.00 0.00015
278.50 0.00016
279.00 0.00017
279.50 0.00018
280.00 0.00019
280.50 0.00020
281.00 0.00021
281.50 0.00022
282.00 0.00023
282.50 0.00024
283.00 0.00025
283.50 0.00026
284.00 0.00027
284.50 0.00028
285.00 0.00029
285.50 0.00031
286.00 0.00032
286.50 0.00033
287.00 0.00034
287.50 0.00036
288.00 0.00038
288.50 0.00040
289.00 0.00042
289.50 0.00044
290.00 0.00046
290.50 0.00048
291.00 0.00050
291.50 0.00053
292.00 0.00057
292.50 0.00061
293.00 0.00065
293.50 0.00069
294.00 0.00073
294.50 0.00077
295.00 0.00084
295.50 0.00093
296.00 0.00102
296.50 0.00112
297.00 0.00121
297.50 0.00130
298.00 0.00140
298.50 0.00160
299.00 0.00181
299.50 0.00201
300.00 0.00222
300.50 0.00242
301.00 0.00262
301.50 0.00282
302.00 0.00307
302.50 0.00350
303.00 0.00393
303.50 0.00437
304.00 0.00480
304.50 0.00523
305.00 0.00567
305.50 0.00611
306.00 0.00697
306.50 0.00786
307.00 0.00882
307.50 0.00978
308.00 0.01073
308.50 0.01169
309.00 0.01287
309.50 0.01433
310.00 0.01592
310.50 0.01804
311.00 0.02016
311.50 0.02229
312.00 0.02441
312.50 0.02651
313.00 0.03004
313.50 0.03372
314.00 0.03740
314.50 0.04108
315.00 0.04476
315.50 0.05128
316.00 0.05780
316.50 0.06432
317.00 0.07084
317.50 0.07735
318.00 0.08437
318.50 0.09559
319.00 0.10741
319.50 0.11921
320.00 0.13100
320.50 0.14277
321.00 0.15857
321.50 0.17777
322.00 0.19733
322.50 0.21686
323.00 0.23939
323.50 0.26640
324.00 0.29337
324.50 0.32032
325.00 0.34722
325.50 0.37903
326.00 0.41641
326.50 0.45423
327.00 0.49077
327.50 0.52716
328.00 0.56338
328.50 0.59943
329.00 0.64159
329.50 0.68394
330.00 0.72133
330.50 0.75665
331.00 0.79174
331.50 0.82659
332.00 0.86120
332.50 0.89618
333.00 0.92695
333.50 0.95792
334.00 0.98865
334.50 1.02156
335.00 1.05489
335.50 1.08809
336.00 1.11420
336.50 1.14001
337.00 1.16569
337.50 1.19155
338.00 1.21818
338.50 1.23855
339.00 1.25904
339.50 1.27938
340.00 1.30009
340.50 1.32103
341.00 1.34008
341.50 1.35760
342.00 1.37511
342.50 1.39254
343.00 1.40691
343.50 1.41631
344.00 1.42800
344.50 1.43965
345.00 1.45124
345.50 1.46209
346.00 1.47083
346.50 1.48038
347.00 1.48992
347.50 1.49944
348.00 1.50546
348.50 1.50903
349.00 1.51368
349.50 1.51833
350.00 1.52299
350.50 1.52767
351.00 1.53267
351.50 1.53612
352.00 1.53963
352.50 1.54319
353.00 1.54680
353.50 1.54771
354.00 1.54826
354.50 1.54989
355.00 1.55227
355.50 1.55438
356.00 1.55480
356.50 1.55529
357.00 1.55615
357.50 1.55697
358.00 1.55748
358.50 1.55780
359.00 1.55785
359.50 1.55798
360.00 1.55822
