phi[deg] B[T]
0.00 1.65235
0.50 1.65209
1.00 1.65194
1.50 1.65189
2.00 1.65194
2.50 1.65131
3.00 1.65069
3.50 1.65014
4.00 1.64927
4.50 1.64817
5.00 1.64716
5.50 1.64625
6.00 1.64392
6.50 1.64185
7.00 1.64034
7.50 1.63890
8.00 1.63754
8.50 1.63625
9.00 1.63353
9.50 1.62888
10.00 1.62428
10.50 1.61974
11.00 1.61526
11.50 1.61083
12.00 1.60646
12.50 1.60230
13.00 1.59826
13.50 1.59038
14.00 1.58248
14.50 1.57457
15.00 1.56665
15.50 1.55873
16.00 1.55080
16.50 1.54322
17.00 1.53498
17.50 1.52188
18.00 1.50876
18.50 1.49560
19.00 1.48241
19.50 1.46936
20.00 1.45263
20.50 1.43588
21.00 1.41913
21.50 1.40236
22.00 1.38559
22.50 1.36885
23.00 1.34775
23.50 1.32486
24.00 1.30180
24.50 1.27859
25.00 1.25523
25.50 1.23171
26.00 1.20804
26.50 1.18423
27.00 1.16265
27.50 1.13454
28.00 1.10489
28.50 1.07501
29.00 1.04490
29.50 1.01457
30.00 0.98401
30.50 0.95301
31.00 0.92079
31.50 0.88724
32.00 0.84978
32.50 0.81208
33.00 0.77416
33.50 0.73572
34.00 0.69656
34.50 0.66136
35.00 0.62622
35.50 0.59089
36.00 0.55281
36.50 0.51284
37.00 0.47272
37.50 0.43326
38.00 0.40342
38.50 0.37349
39.00 0.34271
39.50 0.31176
40.00 0.28075
40.50 0.25633
41.00 0.23529
41.50 0.21422
42.00 0.19311
42.50 0.17180
43.00 0.15490
43.50 0.14152
44.00 0.12814
44.50 0.11475
45.00 0.10137
45.50 0.09286
46.00 0.08435
46.50 0.07582
47.00 0.06710
47.50 0.06063
48.00 0.05523
48.50 0.04987
49.00 0.04452
49.50 0.03919
50.00 0.03608
50.50 0.03298
51.00 0.02987
51.50 0.02674
52.00 0.02361
52.50 0.02108
53.00 0.01914
53.50 0.01756
54.00 0.01599
54.50 0.01441
55.00 0.01284
55.50 0.01123
56.00 0.01015
56.50 0.00938
57.00 0.00862
57.50 0.00785
58.00 0.00708
58.50 0.00631
59.00 0.00554
59.50 0.00504
60.00 0.00463
60.50 0.00423
61.00 0.00383
61.50 0.00342
62.00 0.00302
62.50 0.00265
63.00 0.00246
63.50 0.00226
64.00 0.00207
64.50 0.00186
65.00 0.00166
65.50 0.00151
66.00 0.00141
66.50 0.00131
67.00 0.00121
67.50 0.00111
68.00 0.00101
68.50 0.00090
69.00 0.00084
69.50 0.00079
70.00 0.00074
70.50 0.00070
71.00 0.00065
71.50 0.00060
72.00 0.00056
72.50 0.00051
73.00 0.00048
73.50 0.00046
74.00 0.00044
74.50 0.00041
75.00 0.00039
75.50 0.00037
76.00 0.00035
76.50 0.00033
77.00 0.00031
77.50 0.00030
78.00 0.00028
78.50 0.00027
79.00 0.00026
79.50 0.00024
80.00 0.00023
80.50 0.00022
81.00 0.00020
81.50 0.00019
82.00 0.00018
82.50 0.00017
83.00 0.00016
83.50 0.00015
84.00 0.00014
84.50 0.00012
85.00 0.00011
85.50 0.00010
86.00 0.00009
86.50 0.00008
87.00 0.00007
87.50 0.00006
88.00 0.00005
88.50 0.00004
89.00 0.00004
89.50 0.00004
90.00 0.00003
90.00 0.00003
90.50 0.00004
91.00 0.00004
91.50 0.00004
92.00 0.00005
92.50 0.00006
93.00 0.00007
93.50 0.00008
94.00 0.00009
94.50 0.00010
95.00 0.00011
95.50 0.00012
96.00 0.00014
96.50 0.00015
97.00 0.00016
97.50 0.00017
98.00 0.00018
98.50 0.00019
99.00 0.00020
99.50 0.00022
100.00 0.00023
100.50 0.00024
101.00 0.00026
101.50 0.00027
102.00 0.00028
102.50 0.00030
103.00 0.00031
103.50 0.00033
104.00 0.00035
104.50 0.00037
105.00 0.00039
105.50 0.00041
106.00 0.00044
106.50 0.00046
107.00 0.00048
107.50 0.00051
108.00 0.00056
108.50 0.00060
109.00 0.00065
109.50 0.00070
110.00 0.00074
110.50 0.00079
111.00 0.00084
111.50 0.00090
112.00 0.00101
112.50 0.00111
113.00 0.00121
113.50 0.00131
114.00 0.00141
114.50 0.00151
115.00 0.00166
115.50 0.00186
116.00 0.00207
116.50 0.00226
117.00 0.00246
117.50 0.00265
118.00 0.00302
118.50 0.00342
119.00 0.00383
119.50 0.00423
120.00 0.00463
120.50 0.00504
121.00 0.00554
121.50 0.00631
122.00 0.00708
122.50 0.00785
123.00 0.00862
123.50 0.00938
124.00 0.01015
124.50 0.01123
125.00 0.01284
125.50 0.01441
126.00 0.01599
126.50 0.01756
127.00 0.01914
127.50 0.02108
128.00 0.02361
128.50 0.02674
129.00 0.02987
129.50 0.03298
130.00 0.03608
130.50 0.03919
131.00 0.04452
131.50 0.04987
132.00 0.05523
132.50 0.06063
133.00 0.06710
133.50 0.07582
134.00 0.08435
134.50 0.09286
135.00 0.10137
135.50 0.11475
136.00 0.12814
136.50 0.14152
137.00 0.15490
137.50 0.17180
138.00 0.19311
138.50 0.21422
139.00 0.23529
139.50 0.25633
140.00 0.28075
140.50 0.31176
141.00 0.34271
141.50 0.37349
142.00 0.40342
142.50 0.43326
143.00 0.47272
143.50 0.51284
144.00 0.55281
144.50 0.59089
145.00 0.62622
145.50 0.66136
146.00 0.69656
146.50 0.73572
147.00 0.77416
147.50 0.81208
148.00 0.84978
148.50 0.88724
149.00 0.92079
149.50 0.95301
150.00 0.98401
150.50 1.01457
151.00 1.04490
151.50 1.07501
152.00 1.10489
152.50 1.13454
153.00 1.16265
153.50 1.18423
154.00 1.20804
154.50 1.23171
155.00 1.25523
155.50 1.27859
156.00 1.30180
156.50 1.32486
157.00 1.34775
157.50 1.36885
158.00 1.38559
158.50 1.40236
159.00 1.41913
159.50 1.43588
160.00 1.45263
160.50 1.46936
161.00 1.48241
161.50 1.49560
162.00 1.50876
162.50 1.52188
163.00 1.53498
163.50 1.54322
164.00 1.55080
164.50 1.55873
165.00 1.56665
165.50 1.57457
166.00 1.58248
166.50 1.59038
167.00 1.59826
167.50 1.60230
168.00 1.60646
168.50 1.61083
169.00 1.61526
169.50 1.61974
170.00 1.62428
170.50 1.62888
171.00 1.63353
171.50 1.63625
172.00 1.63754
172.50 1.63890
173.00 1.64034
173.50 1.64185
174.00 1.64392
174.50 1.64625
175.00 1.64716
175.50 1.64817
176.00 1.64927
176.50 1.65014
177.00 1.65069
177.50 1.65131
178.00 1.65194
178.50 1.65189
179.00 1.65194
179.50 1.65209
180.00 1.65235
180.00 1.65235
180.50 1.65209
181.00 1.65194
181.50 1.65189
182.00 1.65194
182.50 1.65131
183.00 1.65069
183.50 1.65014
184.00 1.64927
184.50 1.64817
185.00 1.64716
185.50 1.64625
186.00 1.64392
186.50 1.64185
187.00 1.64034
187.50 1.63890
188.00 1.63754
188.50 1.63625
189.00 1.63353
189.50 1.62888
190.00 1.62428
190.50 1.61974
191.00 1.61526
191.50 1.61083
192.00 1.60646
192.50 1.60230
193.00 1.59826
193.50 1.59038
194.00 1.58248
194.50 1.57457
195.00 1.56665
195.50 1.55873
196.00 1.55080
196.50 1.54322
197.00 1.53498
197.50 1.52188
198.00 1.50876
198.50 1.49560
199.00 1.48241
199.50 1.46936
200.00 1.45263
200.50 1.43588
201.00 1.41913
201.50 1.40236
202.00 1.38559
202.50 1.36885
203.00 1.34775
203.50 1.32486
204.00 1.30180
204.50 1.27859
205.00 1.25523
205.50 1.23171
206.00 1.20804
206.50 1.18423
207.00 1.16265
207.50 1.13454
208.00 1.10489
208.50 1.07501
209.00 1.04490
209.50 1.01457
210.00 0.98401
210.50 0.95301
211.00 0.92079
211.50 0.88724
212.00 0.84978
212.50 0.81208
213.00 0.77416
213.50 0.73572
214.00 0.69656
214.50 0.66136
215.00 0.62622
215.50 0.59089
216.00 0.55281
216.50 0.51284
217.00 0.47272
217.50 0.43326
218.00 0.40342
218.50 0.37349
219.00 0.34271
219.50 0.31176
220.00 0.28075
220.50 0.25633
221.00 0.23529
221.50 0.21422
222.00 0.19311
222.50 0.17180
223.00 0.15490
223.50 0.14152
224.00 0.12814
224.50 0.11475
225.00 0.10137
225.50 0.09286
226.00 0.08435
226.50 0.07582
227.00 0.06710
227.50 0.06063
228.00 0.05523
228.50 0.04987
229.00 0.04452
229.50 0.03919
230.00 0.03608
230.50 0.03298
231.00 0.02987
231.50 0.02674
232.00 0.02361
232.50 0.02108
233.00 0.01914
233.50 0.01756
234.00 0.01599
234.50 0.01441
235.00 0.01284
235.50 0.01123
236.00 0.01015
236.50 0.00938
237.00 0.00862
237.50 0.00785
238.00 0.00708
238.50 0.00631
239.00 0.00554
239.50 0.00504
240.00 0.00463
240.50 0.00423
241.00 0.00383
241.50 0.00342
242.00 0.00302
242.50 0.00265
243.00 0.00246
243.50 0.00226
244.00 0.00207
244.50 0.00186
245.00 0.00166
245.50 0.00151
246.00 0.00141
246.50 0.00131
247.00 0.00121
247.50 0.00111
248.00 0.00101
248.50 0.00090
249.00 0.00084
249.50 0.00079
250.00 0.00074
250.50 0.00070
251.00 0.00065
251.50 0.00060
252.00 0.00056
252.50 0.00051
253.00 0.00048
253.50 0.00046
254.00 0.00044
254.50 0.00041
255.00 0.00039
255.50 0.00037
256.00 0.00035
256.50 0.00033
257.00 0.00031
257.50 0.00030
258.00 0.00028
258.50 0.00027
259.00 0.00026
259.50 0.00024
260.00 0.00023
260.50 0.00022
261.00 0.00020
261.50 0.00019
262.00 0.00018
262.50 0.00017
263.00 0.00016
263.50 0.00015
264.00 0.00014
264.50 0.00012
265.00 0.00011
265.50 0.00010
266.00 0.00009
266.50 0.00008
267.00 0.00007
267.50 0.00006
268.00 0.00005
268.50 0.00004
269.00 0.00004
269.50 0.00004
270.00 0.00003
270.00 0.00003
270.50 0.00004
271.00 0.00004
271.50 0.00004
272.00 0.00005
272.50 0.00006
273.00 0.00007
273.50 0.00008
274.00 0.00009
274.50 0.00010
275.00 0.00011
275.50 0.00012
276.00 0.00014
276.50 0.00015
277.00 0.00016
277.50 0.00017
278.00 0.00018
278.50 0.00019
279.00 0.00020
279.50 0.00022
280.00 0.00023
280.50 0.00024
281.00 0.00026
281.50 0.00027
282.00 0.00028
282.50 0.00030
283.00 0.00031
283.50 0.00033
284.00 0.00035
284.50 0.00037
285.00 0.00039
285.50 0.00041
286.00 0.00044
286.50 0.00046
287.00 0.00048
287.50 0.00051
288.00 0.00056
288.50 0.00060
289.00 0.00065
289.50 0.00070
290.00 0.00074
290.50 0.00079
291.00 0.00084
291.50 0.00090
292.00 0.00101
292.50 0.00111
293.00 0.00121
293.50 0.00131
294.00 0.00141
294.50 0.00151
295.00 0.00166
295.50 0.00186
296.00 0.00207
296.50 0.00226
297.00 0.00246
297.50 0.00265
298.00 0.00302
298.50 0.00342
299.00 0.00383
299.50 0.00423
300.00 0.00463
300.50 0.00504
301.00 0.00554
301.50 0.00631
302.00 0.00708
302.50 0.00785
303.00 0.00862
303.50 0.00938
304.00 0.01015
304.50 0.01123
305.00 0.01284
305.50 0.01441
306.00 0.01599
306.50 0.01756
307.00 0.01914
307.50 0.02108
308.00 0.02361
308.50 0.02674
309.00 0.02987
309.50 0.03298
310.00 0.03608
310.50 0.03919
311.00 0.04452
311.50 0.04987
312.00 0.05523
312.50 0.06063
313.00 0.06710
313.50 0.07582
314.00 0.08435
314.50 0.09286
315.00 0.10137
315.50 0.11475
316.00 0.12814
316.50 0.14152
317.00 0.15490
317.50 0.17180
318.00 0.19311
318.50 0.21422
319.00 0.23529
319.50 0.25633
320.00 0.28075
320.50 0.31176
321.00 0.34271
321.50 0.37349
322.00 0.40342
322.50 0.43326
323.00 0.47272
323.50 0.51284
324.00 0.55281
324.50 0.59089
325.00 0.62622
325.50 0.66136
326.00 0.69656
326.50 0.73572
327.00 0.77416
327.50 0.81208
328.00 0.84978
328.50 0.88724
329.00 0.92079
329.50 0.95301
330.00 0.98401
330.50 1.01457
331.00 1.04490
331.50 1.07501
332.00 1.10489
332.50 1.13454
333.00 1.16265
333.50 1.18423
334.00 1.20804
334.50 1.23171
335.00 1.25523
335.50 1.27859
336.00 1.30180
336.50 1.32486
337.00 1.34775
337.50 1.36885
338.00 1.38559
338.50 1.40236
339.00 1.41913
339.50 1.43588
340.00 1.45263
340.50 1.46936
341.00 1.48241
341.50 1.49560
342.00 1.50876
342.50 1.52188
343.00 1.53498
343.50 1.54322
344.00 1.55080
344.50 1.55873
345.00 1.56665
345.50 1.57457
346.00 1.58248
346.50 1.59038
347.00 1.59826
347.50 1.60230
348.00 1.60646
348.50 1.61083
349.00 1.61526
349.50 1.61974
350.00 1.62428
350.50 1.62888
351.00 1.63353
351.50 1.63625
352.00 1.63754
352.50 1.63890
353.00 1.64034
353.50 1.64185
354.00 1.64392
354.50 1.64625
355.00 1.64716
355.50 1.64817
356.00 1.64927
356.50 1.65014
357.00 1.65069
357.50 1.65131
358.00 1.65194
358.50 1.65189
359.00 1.65194
359.50 1.65209
360.00 1.65235
