phi[deg] B[T]
0.00 1.24723
0.50 1.24598
1.00 1.24480
1.50 1.24366
2.00 1.24180
2.50 1.24002
3.00 1.23817
3.50 1.23640
4.00 1.23480
4.50 1.23377
5.00 1.23284
5.50 1.23201
6.00 1.23162
6.50 1.23198
7.00 1.23283
7.50 1.23378
8.00 1.23474
8.50 1.23566
9.00 1.23790
9.50 1.24049
10.00 1.24227
10.50 1.24343
11.00 1.24466
11.50 1.24598
12.00 1.24828
12.50 1.24751
13.00 1.24714
13.50 1.24685
14.00 1.24661
14.50 1.24565
15.00 1.24450
15.50 1.24402
16.00 1.24361
16.50 1.24328
17.00 1.24398
17.50 1.24469
18.00 1.24526
18.50 1.24671
19.00 1.24836
19.50 1.25078
20.00 1.25266
20.50 1.25404
21.00 1.25551
21.50 1.25701
22.00 1.25853
22.50 1.25575
23.00 1.25231
23.50 1.24879
24.00 1.24517
24.50 1.23995
25.00 1.22715
25.50 1.21555
26.00 1.20396
26.50 1.19221
27.00 1.17909
27.50 1.16542
28.00 1.15040
28.50 1.13618
29.00 1.12256
29.50 1.10967
30.00 1.09681
30.50 1.08462
31.00 1.07255
31.50 1.06038
32.00 1.04804
32.50 1.03648
33.00 1.02524
33.50 1.01403
34.00 1.00196
34.50 0.98874
35.00 0.97629
35.50 0.96446
36.00 0.95252
36.50 0.93773
37.00 0.92296
37.50 0.90826
38.00 0.89293
38.50 0.87655
39.00 0.86063
39.50 0.84472
40.00 0.82685
40.50 0.80835
41.00 0.79042
41.50 0.77080
42.00 0.75179
42.50 0.73085
43.00 0.70942
43.50 0.68665
44.00 0.66291
44.50 0.63850
45.00 0.61281
45.50 0.58534
46.00 0.55879
46.50 0.53076
47.00 0.50273
47.50 0.47756
48.00 0.45535
48.50 0.43470
49.00 0.42084
49.50 0.40634
50.00 0.39834
50.50 0.39312
51.00 0.38806
51.50 0.38215
52.00 0.37918
52.50 0.37722
53.00 0.37288
53.50 0.36769
54.00 0.36202
54.50 0.35156
55.00 0.33806
55.50 0.32588
56.00 0.31375
56.50 0.29207
57.00 0.26713
57.50 0.24409
58.00 0.22279
58.50 0.19003
59.00 0.15846
59.50 0.12790
60.00 0.10318
60.50 0.08261
61.00 0.06204
61.50 0.04146
62.00 0.03037
62.50 0.02372
63.00 0.01706
63.50 0.01040
64.00 0.00670
64.50 0.00472
65.00 0.00274
65.50 0.00121
66.00 0.00093
66.50 0.00066
67.00 0.00039
67.50 0.00045
68.00 0.00056
68.50 0.00067
69.00 0.00069
69.50 0.00071
70.00 0.00073
70.50 0.00073
71.00 0.00073
71.50 0.00073
72.00 0.00073
72.50 0.00072
73.00 0.00070
73.50 0.00069
74.00 0.00068
74.50 0.00066
75.00 0.00065
75.50 0.00063
76.00 0.00061
76.50 0.00060
77.00 0.00058
77.50 0.00056
78.00 0.00054
78.50 0.00052
79.00 0.00050
79.50 0.00048
80.00 0.00046
80.50 0.00044
81.00 0.00042
81.50 0.00040
82.00 0.00038
82.50 0.00035
83.00 0.00033
83.50 0.00031
84.00 0.00029
84.50 0.00027
85.00 0.00024
85.50 0.00022
86.00 0.00020
86.50 0.00018
87.00 0.00016
87.50 0.00014
88.00 0.00012
88.50 0.00010
89.00 0.00008
89.50 0.00007
90.00 0.00006
90.00 0.00006
90.50 0.00007
91.00 0.00008
91.50 0.00010
92.00 0.00012
92.50 0.00014
93.00 0.00016
93.50 0.00018
94.00 0.00020
94.50 0.00022
95.00 0.00024
95.50 0.00027
96.00 0.00029
96.50 0.00031
97.00 0.00033
97.50 0.00035
98.00 0.00038
98.50 0.00040
99.00 0.00042
99.50 0.00044
100.00 0.00046
100.50 0.00048
101.00 0.00050
101.50 0.00052
102.00 0.00054
102.50 0.00056
103.00 0.00058
103.50 0.00060
104.00 0.00061
104.50 0.00063
105.00 0.00065
105.50 0.00066
106.00 0.00068
106.50 0.00069
107.00 0.00070
107.50 0.00072
108.00 0.00073
108.50 0.00073
109.00 0.00073
109.50 0.00073
110.00 0.00073
110.50 0.00071
111.00 0.00069
111.50 0.00067
112.00 0.00056
112.50 0.00045
113.00 0.00039
113.50 0.00066
114.00 0.00093
114.50 0.00121
115.00 0.00274
115.50 0.00472
116.00 0.00670
116.50 0.01040
117.00 0.01706
117.50 0.02372
118.00 0.03037
118.50 0.04146
119.00 0.06204
119.50 0.08261
120.00 0.10318
120.50 0.12790
121.00 0.15846
121.50 0.19003
122.00 0.22279
122.50 0.24409
123.00 0.26713
123.50 0.29207
124.00 0.31375
124.50 0.32588
125.00 0.33806
125.50 0.35156
126.00 0.36202
126.50 0.36769
127.00 0.37288
127.50 0.37722
128.00 0.37918
128.50 0.38215
129.00 0.38806
129.50 0.39312
130.00 0.39834
130.50 0.40634
131.00 0.42084
131.50 0.43470
132.00 0.45535
132.50 0.47756
133.00 0.50273
133.50 0.53076
134.00 0.55879
134.50 0.58534
135.00 0.61281
135.50 0.63850
136.00 0.66291
136.50 0.68665
137.00 0.70942
137.50 0.73085
138.00 0.75179
138.50 0.77080
139.00 0.79042
139.50 0.80835
140.00 0.82685
140.50 0.84472
141.00 0.86063
141.50 0.87655
142.00 0.89293
142.50 0.90826
143.00 0.92296
143.50 0.93773
144.00 0.95252
144.50 0.96446
145.00 0.97629
145.50 0.98874
146.00 1.00196
146.50 1.01403
147.00 1.02524
147.50 1.03648
148.00 1.04804
148.50 1.06038
149.00 1.07255
149.50 1.08462
150.00 1.09681
150.50 1.10967
151.00 1.12256
151.50 1.13618
152.00 1.15040
152.50 1.16542
153.00 1.17909
153.50 1.19221
154.00 1.20396
154.50 1.21555
155.00 1.22715
155.50 1.23995
156.00 1.24517
156.50 1.24879
157.00 1.25231
157.50 1.25575
158.00 1.25853
158.50 1.25701
159.00 1.25551
159.50 1.25404
160.00 1.25266
160.50 1.25078
161.00 1.24836
161.50 1.24671
162.00 1.24526
162.50 1.24469
163.00 1.24398
163.50 1.24328
164.00 1.24361
164.50 1.24402
165.00 1.24450
165.50 1.24565
166.00 1.24661
166.50 1.24685
167.00 1.24714
167.50 1.24751
168.00 1.24828
168.50 1.24598
169.00 1.24466
169.50 1.24343
170.00 1.24227
170.50 1.24049
171.00 1.23790
171.50 1.23566
172.00 1.23474
172.50 1.23378
173.00 1.23283
173.50 1.23198
174.00 1.23162
174.50 1.23201
175.00 1.23284
175.50 1.23377
176.00 1.23480
176.50 1.23640
177.00 1.23817
177.50 1.24002
178.00 1.24180
178.50 1.24366
179.00 1.24480
179.50 1.24598
180.00 1.24723
180.00 1.24723
180.50 1.24598
181.00 1.24480
181.50 1.24366
182.00 1.24180
182.50 1.24002
183.00 1.23817
183.50 1.23640
184.00 1.23480
184.50 1.23377
185.00 1.23284
185.50 1.23201
186.00 1.23162
186.50 1.23198
187.00 1.23283
187.50 1.23378
188.00 1.23474
188.50 1.23566
189.00 1.23790
189.50 1.24049
190.00 1.24227
190.50 1.24343
191.00 1.24466
191.50 1.24598
192.00 1.24828
192.50 1.24751
193.00 1.24714
193.50 1.24685
194.00 1.24661
194.50 1.24565
195.00 1.24450
195.50 1.24402
196.00 1.24361
196.50 1.24328
197.00 1.24398
197.50 1.24469
198.00 1.24526
198.50 1.24671
199.00 1.24836
199.50 1.25078
200.00 1.25266
200.50 1.25404
201.00 1.25551
201.50 1.25701
202.00 1.25853
202.50 1.25575
203.00 1.25231
203.50 1.24879
204.00 1.24517
204.50 1.23995
205.00 1.22715
205.50 1.21555
206.00 1.20396
206.50 1.19221
207.00 1.17909
207.50 1.16542
208.00 1.15040
208.50 1.13618
209.00 1.12256
209.50 1.10967
210.00 1.09681
210.50 1.08462
211.00 1.07255
211.50 1.06038
212.00 1.04804
212.50 1.03648
213.00 1.02524
213.50 1.01403
214.00 1.00196
214.50 0.98874
215.00 0.97629
215.50 0.96446
216.00 0.95252
216.50 0.93773
217.00 0.92296
217.50 0.90826
218.00 0.89293
218.50 0.87655
219.00 0.86063
219.50 0.84472
220.00 0.82685
220.50 0.80835
221.00 0.79042
221.50 0.77080
222.00 0.75179
222.50 0.73085
223.00 0.70942
223.50 0.68665
224.00 0.66291
224.50 0.63850
225.00 0.61281
225.50 0.58534
226.00 0.55879
226.50 0.53076
227.00 0.50273
227.50 0.47756
228.00 0.45535
228.50 0.43470
229.00 0.42084
229.50 0.40634
230.00 0.39834
230.50 0.39312
231.00 0.38806
231.50 0.38215
232.00 0.37918
232.50 0.37722
233.00 0.37288
233.50 0.36769
234.00 0.36202
234.50 0.35156
235.00 0.33806
235.50 0.32588
236.00 0.31375
236.50 0.29207
237.00 0.26713
237.50 0.24409
238.00 0.22279
238.50 0.19003
239.00 0.15846
239.50 0.12790
240.00 0.10318
240.50 0.08261
241.00 0.06204
241.50 0.04146
242.00 0.03037
242.50 0.02372
243.00 0.01706
243.50 0.01040
244.00 0.00670
244.50 0.00472
245.00 0.00274
245.50 0.00121
246.00 0.00093
246.50 0.00066
247.00 0.00039
247.50 0.00045
248.00 0.00056
248.50 0.00067
249.00 0.00069
249.50 0.00071
250.00 0.00073
250.50 0.00073
251.00 0.00073
251.50 0.00073
252.00 0.00073
252.50 0.00072
253.00 0.00070
253.50 0.00069
254.00 0.00068
254.50 0.00066
255.00 0.00065
255.50 0.00063
256.00 0.00061
256.50 0.00060
257.00 0.00058
257.50 0.00056
258.00 0.00054
258.50 0.00052
259.00 0.00050
259.50 0.00048
260.00 0.00046
260.50 0.00044
261.00 0.00042
261.50 0.00040
262.00 0.00038
262.50 0.00035
263.00 0.00033
263.50 0.00031
264.00 0.00029
264.50 0.00027
265.00 0.00024
265.50 0.00022
266.00 0.00020
266.50 0.00018
267.00 0.00016
267.50 0.00014
268.00 0.00012
268.50 0.00010
269.00 0.00008
269.50 0.00007
270.00 0.00006
270.00 0.00006
270.50 0.00007
271.00 0.00008
271.50 0.00010
272.00 0.00012
272.50 0.00014
273.00 0.00016
273.50 0.00018
274.00 0.00020
274.50 0.00022
275.00 0.00024
275.50 0.00027
276.00 0.00029
276.50 0.00031
277.00 0.00033
277.50 0.00035
278.00 0.00038
278.50 0.00040
279.00 0.00042
279.50 0.00044
280.00 0.00046
280.50 0.00048
281.00 0.00050
281.50 0.00052
282.00 0.00054
282.50 0.00056
283.00 0.00058
283.50 0.00060
284.00 0.00061
284.50 0.00063
285.00 0.00065
285.50 0.00066
286.00 0.00068
286.50 0.00069
287.00 0.00070
287.50 0.00072
288.00 0.00073
288.50 0.00073
289.00 0.00073
289.50 0.00073
290.00 0.00073
290.50 0.00071
291.00 0.00069
291.50 0.00067
292.00 0.00056
292.50 0.00045
293.00 0.00039
293.50 0.00066
294.00 0.00093
294.50 0.00121
295.00 0.00274
295.50 0.00472
296.00 0.00670
296.50 0.01040
297.00 0.01706
297.50 0.02372
298.00 0.03037
298.50 0.04146
299.00 0.06204
299.50 0.08261
300.00 0.10318
300.50 0.12790
301.00 0.15846
301.50 0.19003
302.00 0.22279
302.50 0.24409
303.00 0.26713
303.50 0.29207
304.00 0.31375
304.50 0.32588
305.00 0.33806
305.50 0.35156
306.00 0.36202
306.50 0.36769
307.00 0.37288
307.50 0.37722
308.00 0.37918
308.50 0.38215
309.00 0.38806
309.50 0.39312
310.00 0.39834
310.50 0.40634
311.00 0.42084
311.50 0.43470
312.00 0.45535
312.50 0.47756
313.00 0.50273
313.50 0.53076
314.00 0.55879
314.50 0.58534
315.00 0.61281
315.50 0.63850
316.00 0.66291
316.50 0.68665
317.00 0.70942
317.50 0.73085
318.00 0.75179
318.50 0.77080
319.00 0.79042
319.50 0.80835
320.00 0.82685
320.50 0.84472
321.00 0.86063
321.50 0.87655
322.00 0.89293
322.50 0.90826
323.00 0.92296
323.50 0.93773
324.00 0.95252
324.50 0.96446
325.00 0.97629
325.50 0.98874
326.00 1.00196
326.50 1.01403
327.00 1.02524
327.50 1.03648
328.00 1.04804
328.50 1.06038
329.00 1.07255
329.50 1.08462
330.00 1.09681
330.50 1.10967
331.00 1.12256
331.50 1.13618
332.00 1.15040
332.50 1.16542
333.00 1.17909
333.50 1.19221
334.00 1.20396
334.50 1.21555
335.00 1.22715
335.50 1.23995
336.00 1.24517
336.50 1.24879
337.00 1.25231
337.50 1.25575
338.00 1.25853
338.50 1.25701
339.00 1.25551
339.50 1.25404
340.00 1.25266
340.50 1.25078
341.00 1.24836
341.50 1.24671
342.00 1.24526
342.50 1.24469
343.00 1.24398
343.50 1.24328
344.00 1.24361
344.50 1.24402
345.00 1.24450
345.50 1.24565
346.00 1.24661
346.50 1.24685
347.00 1.24714
347.50 1.24751
348.00 1.24828
348.50 1.24598
349.00 1.24466
349.50 1.24343
350.00 1.24227
350.50 1.24049
351.00 1.23790
351.50 1.23566
352.00 1.23474
352.50 1.23378
353.00 1.23283
353.50 1.23198
354.00 1.23162
354.50 1.23201
355.00 1.23284
355.50 1.23377
356.00 1.23480
356.50 1.23640
357.00 1.23817
357.50 1.24002
358.00 1.24180
358.50 1.24366
359.00 1.24480
359.50 1.24598
360.00 1.24723
