phi[deg] B[T]
0.00 1.67039
0.50 1.67027
1.00 1.67028
1.50 1.67054
2.00 1.67107
2.50 1.67185
3.00 1.67224
3.50 1.67263
4.00 1.67314
4.50 1.67380
5.00 1.67553
5.50 1.67654
6.00 1.67663
6.50 1.67683
7.00 1.67713
7.50 1.67754
8.00 1.67900
8.50 1.68147
9.00 1.68231
9.50 1.68289
10.00 1.68185
10.50 1.68089
11.00 1.67998
11.50 1.67921
12.00 1.67938
12.50 1.67955
13.00 1.67587
13.50 1.67225
14.00 1.66867
14.50 1.66515
15.00 1.66270
15.50 1.65616
16.00 1.64960
16.50 1.64302
17.00 1.63642
17.50 1.62980
18.00 1.62329
18.50 1.61580
19.00 1.60445
19.50 1.58989
20.00 1.57526
20.50 1.56056
21.00 1.54578
21.50 1.53094
22.00 1.51603
22.50 1.50344
23.00 1.48712
23.50 1.46560
24.00 1.44214
24.50 1.41856
25.00 1.39484
25.50 1.37099
26.00 1.34701
26.50 1.32299
27.00 1.30078
27.50 1.27540
28.00 1.24631
28.50 1.21543
29.00 1.18438
29.50 1.15317
30.00 1.12179
30.50 1.09026
31.00 1.05878
31.50 1.03145
32.00 0.99996
32.50 0.96595
33.00 0.93128
33.50 0.89641
34.00 0.86135
34.50 0.82609
35.00 0.79064
35.50 0.75562
36.00 0.72163
36.50 0.68704
37.00 0.64820
37.50 0.60916
38.00 0.56993
38.50 0.53427
39.00 0.50055
39.50 0.46689
40.00 0.43347
40.50 0.39994
41.00 0.36631
41.50 0.33444
42.00 0.30788
42.50 0.28135
43.00 0.25478
43.50 0.23196
44.00 0.21141
44.50 0.19082
45.00 0.17066
45.50 0.15630
46.00 0.14163
46.50 0.12695
47.00 0.11362
47.50 0.10295
48.00 0.09236
48.50 0.08328
49.00 0.07541
49.50 0.06769
50.00 0.06090
50.50 0.05601
51.00 0.05113
51.50 0.04625
52.00 0.04139
52.50 0.03675
53.00 0.03211
53.50 0.02944
54.00 0.02696
54.50 0.02478
55.00 0.02260
55.50 0.02043
56.00 0.01826
56.50 0.01609
57.00 0.01393
57.50 0.01268
58.00 0.01145
58.50 0.01021
59.00 0.00933
59.50 0.00857
60.00 0.00780
60.50 0.00704
61.00 0.00628
61.50 0.00559
62.00 0.00498
62.50 0.00437
63.00 0.00406
63.50 0.00374
64.00 0.00343
64.50 0.00311
65.00 0.00279
65.50 0.00248
66.00 0.00217
66.50 0.00203
67.00 0.00188
67.50 0.00173
68.00 0.00158
68.50 0.00144
69.00 0.00129
69.50 0.00115
70.00 0.00105
70.50 0.00099
71.00 0.00092
71.50 0.00086
72.00 0.00079
72.50 0.00073
73.00 0.00066
73.50 0.00060
74.00 0.00057
74.50 0.00054
75.00 0.00050
75.50 0.00047
76.00 0.00044
76.50 0.00041
77.00 0.00038
77.50 0.00036
78.00 0.00034
78.50 0.00032
79.00 0.00031
79.50 0.00029
80.00 0.00027
80.50 0.00026
81.00 0.00024
81.50 0.00022
82.00 0.00021
82.50 0.00020
83.00 0.00018
83.50 0.00017
84.00 0.00016
84.50 0.00014
85.00 0.00013
85.50 0.00012
86.00 0.00010
86.50 0.00009
87.00 0.00008
87.50 0.00006
88.00 0.00005
88.50 0.00005
89.00 0.00005
89.50 0.00004
90.00 0.00004
90.00 0.00004
90.50 0.00004
91.00 0.00005
91.50 0.00005
92.00 0.00005
92.50 0.00006
93.00 0.00008
93.50 0.00009
94.00 0.00010
94.50 0.00012
95.00 0.00013
95.50 0.00014
96.00 0.00016
96.50 0.00017
97.00 0.00018
97.50 0.00020
98.00 0.00021
98.50 0.00022
99.00 0.00024
99.50 0.00026
100.00 0.00027
100.50 0.00029
101.00 0.00031
101.50 0.00032
102.00 0.00034
102.50 0.00036
103.00 0.00038
103.50 0.00041
104.00 0.00044
104.50 0.00047
105.00 0.00050
105.50 0.00054
106.00 0.00057
106.50 0.00060
107.00 0.00066
107.50 0.00073
108.00 0.00079
108.50 0.00086
109.00 0.00092
109.50 0.00099
110.00 0.00105
110.50 0.00115
111.00 0.00129
111.50 0.00144
112.00 0.00158
112.50 0.00173
113.00 0.00188
113.50 0.00203
114.00 0.00217
114.50 0.00248
115.00 0.00279
115.50 0.00311
116.00 0.00343
116.50 0.00374
117.00 0.00406
117.50 0.00437
118.00 0.00498
118.50 0.00559
119.00 0.00628
119.50 0.00704
120.00 0.00780
120.50 0.00857
121.00 0.00933
121.50 0.01021
122.00 0.01145
122.50 0.01268
123.00 0.01393
123.50 0.01609
124.00 0.01826
124.50 0.02043
125.00 0.02260
125.50 0.02478
126.00 0.02696
126.50 0.02944
127.00 0.03211
127.50 0.03675
128.00 0.04139
128.50 0.04625
129.00 0.05113
129.50 0.05601
130.00 0.06090
130.50 0.06769
131.00 0.07541
131.50 0.08328
132.00 0.09236
132.50 0.10295
133.00 0.11362
133.50 0.12695
134.00 0.14163
134.50 0.15630
135.00 0.17066
135.50 0.19082
136.00 0.21141
136.50 0.23196
137.00 0.25478
137.50 0.28135
138.00 0.30788
138.50 0.33444
139.00 0.36631
139.50 0.39994
140.00 0.43347
140.50 0.46689
141.00 0.50055
141.50 0.53427
142.00 0.56993
142.50 0.60916
143.00 0.64820
143.50 0.68704
144.00 0.72163
144.50 0.75562
145.00 0.79064
145.50 0.82609
146.00 0.86135
146.50 0.89641
147.00 0.93128
147.50 0.96595
148.00 0.99996
148.50 1.03145
149.00 1.05878
149.50 1.09026
150.00 1.12179
150.50 1.15317
151.00 1.18438
151.50 1.21543
152.00 1.24631
152.50 1.27540
153.00 1.30078
153.50 1.32299
154.00 1.34701
154.50 1.37099
155.00 1.39484
155.50 1.41856
156.00 1.44214
156.50 1.46560
157.00 1.48712
157.50 1.50344
158.00 1.51603
158.50 1.53094
159.00 1.54578
159.50 1.56056
160.00 1.57526
160.50 1.58989
161.00 1.60445
161.50 1.61580
162.00 1.62329
162.50 1.62980
163.00 1.63642
163.50 1.64302
164.00 1.64960
164.50 1.65616
165.00 1.66270
165.50 1.66515
166.00 1.66867
166.50 1.67225
167.00 1.67587
167.50 1.67955
168.00 1.67938
168.50 1.67921
169.00 1.67998
169.50 1.68089
170.00 1.68185
170.50 1.68289
171.00 1.68231
171.50 1.68147
172.00 1.67900
172.50 1.67754
173.00 1.67713
173.50 1.67683
174.00 1.67663
174.50 1.67654
175.00 1.67553
175.50 1.67380
176.00 1.67314
176.50 1.67263
177.00 1.67224
177.50 1.67185
178.00 1.67107
178.50 1.67054
179.00 1.67028
179.50 1.67027
180.00 1.67039
180.00 1.67039
180.50 1.67027
181.00 1.67028
181.50 1.67054
182.00 1.67107
182.50 1.67185
183.00 1.67224
183.50 1.67263
184.00 1.67314
184.50 1.67380
185.00 1.67553
185.50 1.67654
186.00 1.67663
186.50 1.67683
187.00 1.67713
187.50 1.67754
188.00 1.67900
188.50 1.68147
189.00 1.68231
189.50 1.68289
190.00 1.68185
190.50 1.68089
191.00 1.67998
191.50 1.67921
192.00 1.67938
192.50 1.67955
193.00 1.67587
193.50 1.67225
194.00 1.66867
194.50 1.66515
195.00 1.66270
195.50 1.65616
196.00 1.64960
196.50 1.64302
197.00 1.63642
197.50 1.62980
198.00 1.62329
198.50 1.61580
199.00 1.60445
199.50 1.58989
200.00 1.57526
200.50 1.56056
201.00 1.54578
201.50 1.53094
202.00 1.51603
202.50 1.50344
203.00 1.48712
203.50 1.46560
204.00 1.44214
204.50 1.41856
205.00 1.39484
205.50 1.37099
206.00 1.34701
206.50 1.32299
207.00 1.30078
207.50 1.27540
208.00 1.24631
208.50 1.21543
209.00 1.18438
209.50 1.15317
210.00 1.12179
210.50 1.09026
211.00 1.05878
211.50 1.03145
212.00 0.99996
212.50 0.96595
213.00 0.93128
213.50 0.89641
214.00 0.86135
214.50 0.82609
215.00 0.79064
215.50 0.75562
216.00 0.72163
216.50 0.68704
217.00 0.64820
217.50 0.60916
218.00 0.56993
218.50 0.53427
219.00 0.50055
219.50 0.46689
220.00 0.43347
220.50 0.39994
221.00 0.36631
221.50 0.33444
222.00 0.30788
222.50 0.28135
223.00 0.25478
223.50 0.23196
224.00 0.21141
224.50 0.19082
225.00 0.17066
225.50 0.15630
226.00 0.14163
226.50 0.12695
227.00 0.11362
227.50 0.10295
228.00 0.09236
228.50 0.08328
229.00 0.07541
229.50 0.06769
230.00 0.06090
230.50 0.05601
231.00 0.05113
231.50 0.04625
232.00 0.04139
232.50 0.03675
233.00 0.03211
233.50 0.02944
234.00 0.02696
234.50 0.02478
235.00 0.02260
235.50 0.02043
236.00 0.01826
236.50 0.01609
237.00 0.01393
237.50 0.01268
238.00 0.01145
238.50 0.01021
239.00 0.00933
239.50 0.00857
240.00 0.00780
240.50 0.00704
241.00 0.00628
241.50 0.00559
242.00 0.00498
242.50 0.00437
243.00 0.00406
243.50 0.00374
244.00 0.00343
244.50 0.00311
245.00 0.00279
245.50 0.00248
246.00 0.00217
246.50 0.00203
247.00 0.00188
247.50 0.00173
248.00 0.00158
248.50 0.00144
249.00 0.00129
249.50 0.00115
250.00 0.00105
250.50 0.00099
251.00 0.00092
251.50 0.00086
252.00 0.00079
252.50 0.00073
253.00 0.00066
253.50 0.00060
254.00 0.00057
254.50 0.00054
255.00 0.00050
255.50 0.00047
256.00 0.00044
256.50 0.00041
257.00 0.00038
257.50 0.00036
258.00 0.00034
258.50 0.00032
259.00 0.00031
259.50 0.00029
260.00 0.00027
260.50 0.00026
261.00 0.00024
261.50 0.00022
262.00 0.00021
262.50 0.00020
263.00 0.00018
263.50 0.00017
264.00 0.00016
264.50 0.00014
265.00 0.00013
265.50 0.00012
266.00 0.00010
266.50 0.00009
267.00 0.00008
267.50 0.00006
268.00 0.00005
268.50 0.00005
269.00 0.00005
269.50 0.00004
270.00 0.00004
270.00 0.00004
270.50 0.00004
271.00 0.00005
271.50 0.00005
272.00 0.00005
272.50 0.00006
273.00 0.00008
273.50 0.00009
274.00 0.00010
274.50 0.00012
275.00 0.00013
275.50 0.00014
276.00 0.00016
276.50 0.00017
277.00 0.00018
277.50 0.00020
278.00 0.00021
278.50 0.00022
279.00 0.00024
279.50 0.00026
280.00 0.00027
280.50 0.00029
281.00 0.00031
281.50 0.00032
282.00 0.00034
282.50 0.00036
283.00 0.00038
283.50 0.00041
284.00 0.00044
284.50 0.00047
285.00 0.00050
285.50 0.00054
286.00 0.00057
286.50 0.00060
287.00 0.00066
287.50 0.00073
288.00 0.00079
288.50 0.00086
289.00 0.00092
289.50 0.00099
290.00 0.00105
290.50 0.00115
291.00 0.00129
291.50 0.00144
292.00 0.00158
292.50 0.00173
293.00 0.00188
293.50 0.00203
294.00 0.00217
294.50 0.00248
295.00 0.00279
295.50 0.00311
296.00 0.00343
296.50 0.00374
297.00 0.00406
297.50 0.00437
298.00 0.00498
298.50 0.00559
299.00 0.00628
299.50 0.00704
300.00 0.00780
300.50 0.00857
301.00 0.00933
301.50 0.01021
302.00 0.01145
302.50 0.01268
303.00 0.01393
303.50 0.01609
304.00 0.01826
304.50 0.02043
305.00 0.02260
305.50 0.02478
306.00 0.02696
306.50 0.02944
307.00 0.03211
307.50 0.03675
308.00 0.04139
308.50 0.04625
309.00 0.05113
309.50 0.05601
310.00 0.06090
310.50 0.06769
311.00 0.07541
311.50 0.08328
312.00 0.09236
312.50 0.10295
313.00 0.11362
313.50 0.12695
314.00 0.14163
314.50 0.15630
315.00 0.17066
315.50 0.19082
316.00 0.21141
316.50 0.23196
317.00 0.25478
317.50 0.28135
318.00 0.30788
318.50 0.33444
319.00 0.36631
319.50 0.39994
320.00 0.43347
320.50 0.46689
321.00 0.50055
321.50 0.53427
322.00 0.56993
322.50 0.60916
323.00 0.64820
323.50 0.68704
324.00 0.72163
324.50 0.75562
325.00 0.79064
325.50 0.82609
326.00 0.86135
326.50 0.89641
327.00 0.93128
327.50 0.96595
328.00 0.99996
328.50 1.03145
329.00 1.05878
329.50 1.09026
330.00 1.12179
330.50 1.15317
331.00 1.18438
331.50 1.21543
332.00 1.24631
332.50 1.27540
333.00 1.30078
333.50 1.32299
334.00 1.34701
334.50 1.37099
335.00 1.39484
335.50 1.41856
336.00 1.44214
336.50 1.46560
337.00 1.48712
337.50 1.50344
338.00 1.51603
338.50 1.53094
339.00 1.54578
339.50 1.56056
340.00 1.57526
340.50 1.58989
341.00 1.60445
341.50 1.61580
342.00 1.62329
342.50 1.62980
343.00 1.63642
343.50 1.64302
344.00 1.64960
344.50 1.65616
345.00 1.66270
345.50 1.66515
346.00 1.66867
346.50 1.67225
347.00 1.67587
347.50 1.67955
348.00 1.67938
348.50 1.67921
349.00 1.67998
349.50 1.68089
350.00 1.68185
350.50 1.68289
351.00 1.68231
351.50 1.68147
352.00 1.67900
352.50 1.67754
353.00 1.67713
353.50 1.67683
354.00 1.67663
354.50 1.67654
355.00 1.67553
355.50 1.67380
356.00 1.67314
356.50 1.67263
357.00 1.67224
357.50 1.67185
358.00 1.67107
358.50 1.67054
359.00 1.67028
359.50 1.67027
360.00 1.67039
