phi[deg] B[T]
0.00 1.25750
0.50 1.25625
1.00 1.25507
1.50 1.25394
2.00 1.25209
2.50 1.25032
3.00 1.24854
3.50 1.24685
4.00 1.24534
4.50 1.24448
5.00 1.24372
5.50 1.24306
6.00 1.24286
6.50 1.24348
7.00 1.24468
7.50 1.24596
8.00 1.24720
8.50 1.24832
9.00 1.25095
9.50 1.25398
10.00 1.25594
10.50 1.25707
11.00 1.25828
11.50 1.25956
12.00 1.26193
12.50 1.26046
13.00 1.25957
13.50 1.25875
14.00 1.25799
14.50 1.25620
15.00 1.25414
15.50 1.25299
16.00 1.25191
16.50 1.25066
17.00 1.25067
17.50 1.25069
18.00 1.25063
18.50 1.25148
19.00 1.25250
19.50 1.25437
20.00 1.25576
20.50 1.25674
21.00 1.25794
21.50 1.25918
22.00 1.26045
22.50 1.25798
23.00 1.25494
23.50 1.25183
24.00 1.24865
24.50 1.24403
25.00 1.23297
25.50 1.22290
26.00 1.21284
26.50 1.20268
27.00 1.19153
27.50 1.17998
28.00 1.16737
28.50 1.15586
29.00 1.14495
29.50 1.13420
30.00 1.12349
30.50 1.11424
31.00 1.10520
31.50 1.09557
32.00 1.08511
32.50 1.07584
33.00 1.06703
33.50 1.05822
34.00 1.04757
34.50 1.03404
35.00 1.02150
35.50 1.00991
36.00 0.99799
36.50 0.97903
37.00 0.96003
37.50 0.94189
38.00 0.92375
38.50 0.90339
39.00 0.88269
39.50 0.86199
40.00 0.84012
40.50 0.81788
41.00 0.79576
41.50 0.77270
42.00 0.75040
42.50 0.72674
43.00 0.70233
43.50 0.67729
44.00 0.65146
44.50 0.62553
45.00 0.59858
45.50 0.57073
46.00 0.54461
46.50 0.51743
47.00 0.49220
47.50 0.46998
48.00 0.45249
48.50 0.43721
49.00 0.42997
49.50 0.42140
50.00 0.41830
50.50 0.41826
51.00 0.41836
51.50 0.41524
52.00 0.41504
52.50 0.41604
53.00 0.41312
53.50 0.40887
54.00 0.40416
54.50 0.39362
55.00 0.37942
55.50 0.36684
56.00 0.35428
56.50 0.33064
57.00 0.30319
57.50 0.27811
58.00 0.25524
58.50 0.21909
59.00 0.18427
59.50 0.15054
60.00 0.12313
60.50 0.10018
61.00 0.07718
61.50 0.05412
62.00 0.04191
62.50 0.03395
63.00 0.02598
63.50 0.01799
64.00 0.01346
64.50 0.01095
65.00 0.00841
65.50 0.00621
66.00 0.00522
66.50 0.00422
67.00 0.00325
67.50 0.00278
68.00 0.00234
68.50 0.00200
69.00 0.00176
69.50 0.00152
70.00 0.00130
70.50 0.00120
71.00 0.00110
71.50 0.00101
72.00 0.00091
72.50 0.00086
73.00 0.00082
73.50 0.00079
74.00 0.00075
74.50 0.00072
75.00 0.00070
75.50 0.00067
76.00 0.00065
76.50 0.00063
77.00 0.00061
77.50 0.00059
78.00 0.00057
78.50 0.00055
79.00 0.00052
79.50 0.00050
80.00 0.00048
80.50 0.00046
81.00 0.00044
81.50 0.00041
82.00 0.00039
82.50 0.00037
83.00 0.00035
83.50 0.00032
84.00 0.00030
84.50 0.00028
85.00 0.00025
85.50 0.00023
86.00 0.00021
86.50 0.00019
87.00 0.00016
87.50 0.00014
88.00 0.00012
88.50 0.00010
89.00 0.00008
89.50 0.00007
90.00 0.00006
90.00 0.00006
90.50 0.00007
91.00 0.00008
91.50 0.00010
92.00 0.00012
92.50 0.00014
93.00 0.00016
93.50 0.00019
94.00 0.00021
94.50 0.00023
95.00 0.00025
95.50 0.00028
96.00 0.00030
96.50 0.00032
97.00 0.00035
97.50 0.00037
98.00 0.00039
98.50 0.00041
99.00 0.00044
99.50 0.00046
100.00 0.00048
100.50 0.00050
101.00 0.00052
101.50 0.00055
102.00 0.00057
102.50 0.00059
103.00 0.00061
103.50 0.00063
104.00 0.00065
104.50 0.00067
105.00 0.00070
105.50 0.00072
106.00 0.00075
106.50 0.00079
107.00 0.00082
107.50 0.00086
108.00 0.00091
108.50 0.00101
109.00 0.00110
109.50 0.00120
110.00 0.00130
110.50 0.00152
111.00 0.00176
111.50 0.00200
112.00 0.00234
112.50 0.00278
113.00 0.00325
113.50 0.00422
114.00 0.00522
114.50 0.00621
115.00 0.00841
115.50 0.01095
116.00 0.01346
116.50 0.01799
117.00 0.02598
117.50 0.03395
118.00 0.04191
118.50 0.05412
119.00 0.07718
119.50 0.10018
120.00 0.12313
120.50 0.15054
121.00 0.18427
121.50 0.21909
122.00 0.25524
122.50 0.27811
123.00 0.30319
123.50 0.33064
124.00 0.35428
124.50 0.36684
125.00 0.37942
125.50 0.39362
126.00 0.40416
126.50 0.40887
127.00 0.41312
127.50 0.41604
128.00 0.41504
128.50 0.41524
129.00 0.41836
129.50 0.41826
130.00 0.41830
130.50 0.42140
131.00 0.42997
131.50 0.43721
132.00 0.45249
132.50 0.46998
133.00 0.49220
133.50 0.51743
134.00 0.54461
134.50 0.57073
135.00 0.59858
135.50 0.62553
136.00 0.65146
136.50 0.67729
137.00 0.70233
137.50 0.72674
138.00 0.75040
138.50 0.77270
139.00 0.79576
139.50 0.81788
140.00 0.84012
140.50 0.86199
141.00 0.88269
141.50 0.90339
142.00 0.92375
142.50 0.94189
143.00 0.96003
143.50 0.97903
144.00 0.99799
144.50 1.00991
145.00 1.02150
145.50 1.03404
146.00 1.04757
146.50 1.05822
147.00 1.06703
147.50 1.07584
148.00 1.08511
148.50 1.09557
149.00 1.10520
149.50 1.11424
150.00 1.12349
150.50 1.13420
151.00 1.14495
151.50 1.15586
152.00 1.16737
152.50 1.17998
153.00 1.19153
153.50 1.20268
154.00 1.21284
154.50 1.22290
155.00 1.23297
155.50 1.24403
156.00 1.24865
156.50 1.25183
157.00 1.25494
157.50 1.25798
158.00 1.26045
158.50 1.25918
159.00 1.25794
159.50 1.25674
160.00 1.25576
160.50 1.25437
161.00 1.25250
161.50 1.25148
162.00 1.25063
162.50 1.25069
163.00 1.25067
163.50 1.25066
164.00 1.25191
164.50 1.25299
165.00 1.25414
165.50 1.25620
166.00 1.25799
166.50 1.25875
167.00 1.25957
167.50 1.26046
168.00 1.26193
168.50 1.25956
169.00 1.25828
169.50 1.25707
170.00 1.25594
170.50 1.25398
171.00 1.25095
171.50 1.24832
172.00 1.24720
172.50 1.24596
173.00 1.24468
173.50 1.24348
174.00 1.24286
174.50 1.24306
175.00 1.24372
175.50 1.24448
176.00 1.24534
176.50 1.24685
177.00 1.24854
177.50 1.25032
178.00 1.25209
178.50 1.25394
179.00 1.25507
179.50 1.25625
180.00 1.25750
180.00 1.25750
180.50 1.25625
181.00 1.25507
181.50 1.25394
182.00 1.25209
182.50 1.25032
183.00 1.24854
183.50 1.24685
184.00 1.24534
184.50 1.24448
185.00 1.24372
185.50 1.24306
186.00 1.24286
186.50 1.24348
187.00 1.24468
187.50 1.24596
188.00 1.24720
188.50 1.24832
189.00 1.25095
189.50 1.25398
190.00 1.25594
190.50 1.25707
191.00 1.25828
191.50 1.25956
192.00 1.26193
192.50 1.26046
193.00 1.25957
193.50 1.25875
194.00 1.25799
194.50 1.25620
195.00 1.25414
195.50 1.25299
196.00 1.25191
196.50 1.25066
197.00 1.25067
197.50 1.25069
198.00 1.25063
198.50 1.25148
199.00 1.25250
199.50 1.25437
200.00 1.25576
200.50 1.25674
201.00 1.25794
201.50 1.25918
202.00 1.26045
202.50 1.25798
203.00 1.25494
203.50 1.25183
204.00 1.24865
204.50 1.24403
205.00 1.23297
205.50 1.22290
206.00 1.21284
206.50 1.20268
207.00 1.19153
207.50 1.17998
208.00 1.16737
208.50 1.15586
209.00 1.14495
209.50 1.13420
210.00 1.12349
210.50 1.11424
211.00 1.10520
211.50 1.09557
212.00 1.08511
212.50 1.07584
213.00 1.06703
213.50 1.05822
214.00 1.04757
214.50 1.03404
215.00 1.02150
215.50 1.00991
216.00 0.99799
216.50 0.97903
217.00 0.96003
217.50 0.94189
218.00 0.92375
218.50 0.90339
219.00 0.88269
219.50 0.86199
220.00 0.84012
220.50 0.81788
221.00 0.79576
221.50 0.77270
222.00 0.75040
222.50 0.72674
223.00 0.70233
223.50 0.67729
224.00 0.65146
224.50 0.62553
225.00 0.59858
225.50 0.57073
226.00 0.54461
226.50 0.51743
227.00 0.49220
227.50 0.46998
228.00 0.45249
228.50 0.43721
229.00 0.42997
229.50 0.42140
230.00 0.41830
230.50 0.41826
231.00 0.41836
231.50 0.41524
232.00 0.41504
232.50 0.41604
233.00 0.41312
233.50 0.40887
234.00 0.40416
234.50 0.39362
235.00 0.37942
235.50 0.36684
236.00 0.35428
236.50 0.33064
237.00 0.30319
237.50 0.27811
238.00 0.25524
238.50 0.21909
239.00 0.18427
239.50 0.15054
240.00 0.12313
240.50 0.10018
241.00 0.07718
241.50 0.05412
242.00 0.04191
242.50 0.03395
243.00 0.02598
243.50 0.01799
244.00 0.01346
244.50 0.01095
245.00 0.00841
245.50 0.00621
246.00 0.00522
246.50 0.00422
247.00 0.00325
247.50 0.00278
248.00 0.00234
248.50 0.00200
249.00 0.00176
249.50 0.00152
250.00 0.00130
250.50 0.00120
251.00 0.00110
251.50 0.00101
252.00 0.00091
252.50 0.00086
253.00 0.00082
253.50 0.00079
254.00 0.00075
254.50 0.00072
255.00 0.00070
255.50 0.00067
256.00 0.00065
256.50 0.00063
257.00 0.00061
257.50 0.00059
258.00 0.00057
258.50 0.00055
259.00 0.00052
259.50 0.00050
260.00 0.00048
260.50 0.00046
261.00 0.00044
261.50 0.00041
262.00 0.00039
262.50 0.00037
263.00 0.00035
263.50 0.00032
264.00 0.00030
264.50 0.00028
265.00 0.00025
265.50 0.00023
266.00 0.00021
266.50 0.00019
267.00 0.00016
267.50 0.00014
268.00 0.00012
268.50 0.00010
269.00 0.00008
269.50 0.00007
270.00 0.00006
270.00 0.00006
270.50 0.00007
271.00 0.00008
271.50 0.00010
272.00 0.00012
272.50 0.00014
273.00 0.00016
273.50 0.00019
274.00 0.00021
274.50 0.00023
275.00 0.00025
275.50 0.00028
276.00 0.00030
276.50 0.00032
277.00 0.00035
277.50 0.00037
278.00 0.00039
278.50 0.00041
279.00 0.00044
279.50 0.00046
280.00 0.00048
280.50 0.00050
281.00 0.00052
281.50 0.00055
282.00 0.00057
282.50 0.00059
283.00 0.00061
283.50 0.00063
284.00 0.00065
284.50 0.00067
285.00 0.00070
285.50 0.00072
286.00 0.00075
286.50 0.00079
287.00 0.00082
287.50 0.00086
288.00 0.00091
288.50 0.00101
289.00 0.00110
289.50 0.00120
290.00 0.00130
290.50 0.00152
291.00 0.00176
291.50 0.00200
292.00 0.00234
292.50 0.00278
293.00 0.00325
293.50 0.00422
294.00 0.00522
294.50 0.00621
295.00 0.00841
295.50 0.01095
296.00 0.01346
296.50 0.01799
297.00 0.02598
297.50 0.03395
298.00 0.04191
298.50 0.05412
299.00 0.07718
299.50 0.10018
300.00 0.12313
300.50 0.15054
301.00 0.18427
301.50 0.21909
302.00 0.25524
302.50 0.27811
303.00 0.30319
303.50 0.33064
304.00 0.35428
304.50 0.36684
305.00 0.37942
305.50 0.39362
306.00 0.40416
306.50 0.40887
307.00 0.41312
307.50 0.41604
308.00 0.41504
308.50 0.41524
309.00 0.41836
309.50 0.41826
310.00 0.41830
310.50 0.42140
311.00 0.42997
311.50 0.43721
312.00 0.45249
312.50 0.46998
313.00 0.49220
313.50 0.51743
314.00 0.54461
314.50 0.57073
315.00 0.59858
315.50 0.62553
316.00 0.65146
316.50 0.67729
317.00 0.70233
317.50 0.72674
318.00 0.75040
318.50 0.77270
319.00 0.79576
319.50 0.81788
320.00 0.84012
320.50 0.86199
321.00 0.88269
321.50 0.90339
322.00 0.92375
322.50 0.94189
323.00 0.96003
323.50 0.97903
324.00 0.99799
324.50 1.00991
325.00 1.02150
325.50 1.03404
326.00 1.04757
326.50 1.05822
327.00 1.06703
327.50 1.07584
328.00 1.08511
328.50 1.09557
329.00 1.10520
329.50 1.11424
330.00 1.12349
330.50 1.13420
331.00 1.14495
331.50 1.15586
332.00 1.16737
332.50 1.17998
333.00 1.19153
333.50 1.20268
334.00 1.21284
334.50 1.22290
335.00 1.23297
335.50 1.24403
336.00 1.24865
336.50 1.25183
337.00 1.25494
337.50 1.25798
338.00 1.26045
338.50 1.25918
339.00 1.25794
339.50 1.25674
340.00 1.25576
340.50 1.25437
341.00 1.25250
341.50 1.25148
342.00 1.25063
342.50 1.25069
343.00 1.25067
343.50 1.25066
344.00 1.25191
344.50 1.25299
345.00 1.25414
345.50 1.25620
346.00 1.25799
346.50 1.25875
347.00 1.25957
347.50 1.26046
348.00 1.26193
348.50 1.25956
349.00 1.25828
349.50 1.25707
350.00 1.25594
350.50 1.25398
351.00 1.25095
351.50 1.24832
352.00 1.24720
352.50 1.24596
353.00 1.24468
353.50 1.24348
354.00 1.24286
354.50 1.24306
355.00 1.24372
355.50 1.24448
356.00 1.24534
356.50 1.24685
357.00 1.24854
357.50 1.25032
358.00 1.25209
358.50 1.25394
359.00 1.25507
359.50 1.25625
360.00 1.25750
