phi[deg] B[T]
0.00 1.22634
0.50 1.22692
1.00 1.22732
1.50 1.22764
2.00 1.22798
2.50 1.22834
3.00 1.22921
3.50 1.23068
4.00 1.23217
4.50 1.23368
5.00 1.23522
5.50 1.23665
6.00 1.23793
6.50 1.23956
7.00 1.24145
7.50 1.24355
8.00 1.24566
8.50 1.24778
9.00 1.24992
9.50 1.25202
10.00 1.25406
10.50 1.25611
11.00 1.25817
11.50 1.26025
12.00 1.26228
12.50 1.26395
13.00 1.26516
13.50 1.26643
14.00 1.26771
14.50 1.26899
15.00 1.27028
15.50 1.27158
16.00 1.27253
16.50 1.27271
17.00 1.27290
17.50 1.27308
18.00 1.27327
18.50 1.27346
19.00 1.27290
19.50 1.27082
20.00 1.26808
20.50 1.26658
21.00 1.26520
21.50 1.26378
22.00 1.25978
22.50 1.25520
23.00 1.25059
23.50 1.24549
24.00 1.23938
24.50 1.23255
25.00 1.22515
25.50 1.21772
26.00 1.21025
26.50 1.20158
27.00 1.19258
27.50 1.18212
28.00 1.17064
28.50 1.15913
29.00 1.14759
29.50 1.13593
30.00 1.12329
30.50 1.10962
31.00 1.09594
31.50 1.08222
32.00 1.06848
32.50 1.05472
33.00 1.04075
33.50 1.02547
34.00 1.01039
34.50 0.99529
35.00 0.98016
35.50 0.96502
36.00 0.94758
36.50 0.92974
37.00 0.91189
37.50 0.89403
38.00 0.87617
38.50 0.85810
39.00 0.84003
39.50 0.82193
40.00 0.80343
40.50 0.78365
41.00 0.76387
41.50 0.74453
42.00 0.72474
42.50 0.70517
43.00 0.68559
43.50 0.66575
44.00 0.64488
44.50 0.62401
45.00 0.60327
45.50 0.58318
46.00 0.56330
46.50 0.54343
47.00 0.52378
47.50 0.50441
48.00 0.48505
48.50 0.46569
49.00 0.44655
49.50 0.42935
50.00 0.41238
50.50 0.39543
51.00 0.37850
51.50 0.36200
52.00 0.34765
52.50 0.33335
53.00 0.31904
53.50 0.30497
54.00 0.29164
54.50 0.27831
55.00 0.26500
55.50 0.25183
56.00 0.24197
56.50 0.23138
57.00 0.21990
57.50 0.20840
58.00 0.19687
58.50 0.18533
59.00 0.17376
59.50 0.16365
60.00 0.15477
60.50 0.14587
61.00 0.13695
61.50 0.12802
62.00 0.11908
62.50 0.11011
63.00 0.10301
63.50 0.09674
64.00 0.09046
64.50 0.08414
65.00 0.07781
65.50 0.07147
66.00 0.06667
66.50 0.06273
67.00 0.05879
67.50 0.05484
68.00 0.05090
68.50 0.04696
69.00 0.04302
69.50 0.03949
70.00 0.03690
70.50 0.03430
71.00 0.03178
71.50 0.02982
72.00 0.02787
72.50 0.02592
73.00 0.02397
73.50 0.02202
74.00 0.02020
74.50 0.01893
75.00 0.01767
75.50 0.01651
76.00 0.01545
76.50 0.01439
77.00 0.01334
77.50 0.01228
78.00 0.01148
78.50 0.01090
79.00 0.01032
79.50 0.00974
80.00 0.00916
80.50 0.00857
81.00 0.00800
81.50 0.00745
82.00 0.00691
82.50 0.00637
83.00 0.00600
83.50 0.00577
84.00 0.00555
84.50 0.00533
85.00 0.00510
85.50 0.00488
86.00 0.00464
86.50 0.00438
87.00 0.00430
87.50 0.00421
88.00 0.00411
88.50 0.00401
89.00 0.00391
89.50 0.00382
90.00 0.00372
90.00 0.00372
90.50 0.00382
91.00 0.00391
91.50 0.00401
92.00 0.00411
92.50 0.00421
93.00 0.00430
93.50 0.00438
94.00 0.00464
94.50 0.00488
95.00 0.00510
95.50 0.00533
96.00 0.00555
96.50 0.00577
97.00 0.00600
97.50 0.00637
98.00 0.00691
98.50 0.00745
99.00 0.00800
99.50 0.00857
100.00 0.00916
100.50 0.00974
101.00 0.01032
101.50 0.01090
102.00 0.01148
102.50 0.01228
103.00 0.01334
103.50 0.01439
104.00 0.01545
104.50 0.01651
105.00 0.01767
105.50 0.01893
106.00 0.02020
106.50 0.02202
107.00 0.02397
107.50 0.02592
108.00 0.02787
108.50 0.02982
109.00 0.03178
109.50 0.03430
110.00 0.03690
110.50 0.03949
111.00 0.04302
111.50 0.04696
112.00 0.05090
112.50 0.05484
113.00 0.05879
113.50 0.06273
114.00 0.06667
114.50 0.07147
115.00 0.07781
115.50 0.08414
116.00 0.09046
116.50 0.09674
117.00 0.10301
117.50 0.11011
118.00 0.11908
118.50 0.12802
119.00 0.13695
119.50 0.14587
120.00 0.15477
120.50 0.16365
121.00 0.17376
121.50 0.18533
122.00 0.19687
122.50 0.20840
123.00 0.21990
123.50 0.23138
124.00 0.24197
124.50 0.25183
125.00 0.26500
125.50 0.27831
126.00 0.29164
126.50 0.30497
127.00 0.31904
127.50 0.33335
128.00 0.34765
128.50 0.36200
129.00 0.37850
129.50 0.39543
130.00 0.41238
130.50 0.42935
131.00 0.44655
131.50 0.46569
132.00 0.48505
132.50 0.50441
133.00 0.52378
133.50 0.54343
134.00 0.56330
134.50 0.58318
135.00 0.60327
135.50 0.62401
136.00 0.64488
136.50 0.66575
137.00 0.68559
137.50 0.70517
138.00 0.72474
138.50 0.74453
139.00 0.76387
139.50 0.78365
140.00 0.80343
140.50 0.82193
141.00 0.84003
141.50 0.85810
142.00 0.87617
142.50 0.89403
143.00 0.91189
143.50 0.92974
144.00 0.94758
144.50 0.96502
145.00 0.98016
145.50 0.99529
146.00 1.01039
146.50 1.02547
147.00 1.04075
147.50 1.05472
148.00 1.06848
148.50 1.08222
149.00 1.09594
149.50 1.10962
150.00 1.12329
150.50 1.13593
151.00 1.14759
151.50 1.15913
152.00 1.17064
152.50 1.18212
153.00 1.19258
153.50 1.20158
154.00 1.21025
154.50 1.21772
155.00 1.22515
155.50 1.23255
156.00 1.23938
156.50 1.24549
157.00 1.25059
157.50 1.25520
158.00 1.25978
158.50 1.26378
159.00 1.26520
159.50 1.26658
160.00 1.26808
160.50 1.27082
161.00 1.27290
161.50 1.27346
162.00 1.27327
162.50 1.27308
163.00 1.27290
163.50 1.27271
164.00 1.27253
164.50 1.27158
165.00 1.27028
165.50 1.26899
166.00 1.26771
166.50 1.26643
167.00 1.26516
167.50 1.26395
168.00 1.26228
168.50 1.26025
169.00 1.25817
169.50 1.25611
170.00 1.25406
170.50 1.25202
171.00 1.24992
171.50 1.24778
172.00 1.24566
172.50 1.24355
173.00 1.24145
173.50 1.23956
174.00 1.23793
174.50 1.23665
175.00 1.23522
175.50 1.23368
176.00 1.23217
176.50 1.23068
177.00 1.22921
177.50 1.22834
178.00 1.22798
178.50 1.22764
179.00 1.22732
179.50 1.22692
180.00 1.22634
180.00 1.22634
180.50 1.22692
181.00 1.22732
181.50 1.22764
182.00 1.22798
182.50 1.22834
183.00 1.22921
183.50 1.23068
184.00 1.23217
184.50 1.23368
185.00 1.23522
185.50 1.23665
186.00 1.23793
186.50 1.23956
187.00 1.24145
187.50 1.24355
188.00 1.24566
188.50 1.24778
189.00 1.24992
189.50 1.25202
190.00 1.25406
190.50 1.25611
191.00 1.25817
191.50 1.26025
192.00 1.26228
192.50 1.26395
193.00 1.26516
193.50 1.26643
194.00 1.26771
194.50 1.26899
195.00 1.27028
195.50 1.27158
196.00 1.27253
196.50 1.27271
197.00 1.27290
197.50 1.27308
198.00 1.27327
198.50 1.27346
199.00 1.27290
199.50 1.27082
200.00 1.26808
200.50 1.26658
201.00 1.26520
201.50 1.26378
202.00 1.25978
202.50 1.25520
203.00 1.25059
203.50 1.24549
204.00 1.23938
204.50 1.23255
205.00 1.22515
205.50 1.21772
206.00 1.21025
206.50 1.20158
207.00 1.19258
207.50 1.18212
208.00 1.17064
208.50 1.15913
209.00 1.14759
209.50 1.13593
210.00 1.12329
210.50 1.10962
211.00 1.09594
211.50 1.08222
212.00 1.06848
212.50 1.05472
213.00 1.04075
213.50 1.02547
214.00 1.01039
214.50 0.99529
215.00 0.98016
215.50 0.96502
216.00 0.94758
216.50 0.92974
217.00 0.91189
217.50 0.89403
218.00 0.87617
218.50 0.85810
219.00 0.84003
219.50 0.82193
220.00 0.80343
220.50 0.78365
221.00 0.76387
221.50 0.74453
222.00 0.72474
222.50 0.70517
223.00 0.68559
223.50 0.66575
224.00 0.64488
224.50 0.62401
225.00 0.60327
225.50 0.58318
226.00 0.56330
226.50 0.54343
227.00 0.52378
227.50 0.50441
228.00 0.48505
228.50 0.46569
229.00 0.44655
229.50 0.42935
230.00 0.41238
230.50 0.39543
231.00 0.37850
231.50 0.36200
232.00 0.34765
232.50 0.33335
233.00 0.31904
233.50 0.30497
234.00 0.29164
234.50 0.27831
235.00 0.26500
235.50 0.25183
236.00 0.24197
236.50 0.23138
237.00 0.21990
237.50 0.20840
238.00 0.19687
238.50 0.18533
239.00 0.17376
239.50 0.16365
240.00 0.15477
240.50 0.14587
241.00 0.13695
241.50 0.12802
242.00 0.11908
242.50 0.11011
243.00 0.10301
243.50 0.09674
244.00 0.09046
244.50 0.08414
245.00 0.07781
245.50 0.07147
246.00 0.06667
246.50 0.06273
247.00 0.05879
247.50 0.05484
248.00 0.05090
248.50 0.04696
249.00 0.04302
249.50 0.03949
250.00 0.03690
250.50 0.03430
251.00 0.03178
251.50 0.02982
252.00 0.02787
252.50 0.02592
253.00 0.02397
253.50 0.02202
254.00 0.02020
254.50 0.01893
255.00 0.01767
255.50 0.01651
256.00 0.01545
256.50 0.01439
257.00 0.01334
257.50 0.01228
258.00 0.01148
258.50 0.01090
259.00 0.01032
259.50 0.00974
260.00 0.00916
260.50 0.00857
261.00 0.00800
261.50 0.00745
262.00 0.00691
262.50 0.00637
263.00 0.00600
263.50 0.00577
264.00 0.00555
264.50 0.00533
265.00 0.00510
265.50 0.00488
266.00 0.00464
266.50 0.00438
267.00 0.00430
267.50 0.00421
268.00 0.00411
268.50 0.00401
269.00 0.00391
269.50 0.00382
270.00 0.00372
270.00 0.00372
270.50 0.00382
271.00 0.00391
271.50 0.00401
272.00 0.00411
272.50 0.00421
273.00 0.00430
273.50 0.00438
274.00 0.00464
274.50 0.00488
275.00 0.00510
275.50 0.00533
276.00 0.00555
276.50 0.00577
277.00 0.00600
277.50 0.00637
278.00 0.00691
278.50 0.00745
279.00 0.00800
279.50 0.00857
280.00 0.00916
280.50 0.00974
281.00 0.01032
281.50 0.01090
282.00 0.01148
282.50 0.01228
283.00 0.01334
283.50 0.01439
284.00 0.01545
284.50 0.01651
285.00 0.01767
285.50 0.01893
286.00 0.02020
286.50 0.02202
287.00 0.02397
287.50 0.02592
288.00 0.02787
288.50 0.02982
289.00 0.03178
289.50 0.03430
290.00 0.03690
290.50 0.03949
291.00 0.04302
291.50 0.04696
292.00 0.05090
292.50 0.05484
293.00 0.05879
293.50 0.06273
294.00 0.06667
294.50 0.07147
295.00 0.07781
295.50 0.08414
296.00 0.09046
296.50 0.09674
297.00 0.10301
297.50 0.11011
298.00 0.11908
298.50 0.12802
299.00 0.13695
299.50 0.14587
300.00 0.15477
300.50 0.16365
301.00 0.17376
301.50 0.18533
302.00 0.19687
302.50 0.20840
303.00 0.21990
303.50 0.23138
304.00 0.24197
304.50 0.25183
305.00 0.26500
305.50 0.27831
306.00 0.29164
306.50 0.30497
307.00 0.31904
307.50 0.33335
308.00 0.34765
308.50 0.36200
309.00 0.37850
309.50 0.39543
310.00 0.41238
310.50 0.42935
311.00 0.44655
311.50 0.46569
312.00 0.48505
312.50 0.50441
313.00 0.52378
313.50 0.54343
314.00 0.56330
314.50 0.58318
315.00 0.60327
315.50 0.62401
316.00 0.64488
316.50 0.66575
317.00 0.68559
317.50 0.70517
318.00 0.72474
318.50 0.74453
319.00 0.76387
319.50 0.78365
320.00 0.80343
320.50 0.82193
321.00 0.84003
321.50 0.85810
322.00 0.87617
322.50 0.89403
323.00 0.91189
323.50 0.92974
324.00 0.94758
324.50 0.96502
325.00 0.98016
325.50 0.99529
326.00 1.01039
326.50 1.02547
327.00 1.04075
327.50 1.05472
328.00 1.06848
328.50 1.08222
329.00 1.09594
329.50 1.10962
330.00 1.12329
330.50 1.13593
331.00 1.14759
331.50 1.15913
332.00 1.17064
332.50 1.18212
333.00 1.19258
333.50 1.20158
334.00 1.21025
334.50 1.21772
335.00 1.22515
335.50 1.23255
336.00 1.23938
336.50 1.24549
337.00 1.25059
337.50 1.25520
338.00 1.25978
338.50 1.26378
339.00 1.26520
339.50 1.26658
340.00 1.26808
340.50 1.27082
341.00 1.27290
341.50 1.27346
342.00 1.27327
342.50 1.27308
343.00 1.27290
343.50 1.27271
344.00 1.27253
344.50 1.27158
345.00 1.27028
345.50 1.26899
346.00 1.26771
346.50 1.26643
347.00 1.26516
347.50 1.26395
348.00 1.26228
348.50 1.26025
349.00 1.25817
349.50 1.25611
350.00 1.25406
350.50 1.25202
351.00 1.24992
351.50 1.24778
352.00 1.24566
352.50 1.24355
353.00 1.24145
353.50 1.23956
354.00 1.23793
354.50 1.23665
355.00 1.23522
355.50 1.23368
356.00 1.23217
356.50 1.23068
357.00 1.22921
357.50 1.22834
358.00 1.22798
358.50 1.22764
359.00 1.22732
359.50 1.22692
360.00 1.22634
