phi[deg] B[T]
0.00 1.19224
0.50 1.19112
1.00 1.19008
1.50 1.18907
2.00 1.18744
2.50 1.18592
3.00 1.18449
3.50 1.18377
4.00 1.18322
4.50 1.18244
5.00 1.18176
5.50 1.18179
6.00 1.18246
6.50 1.18350
7.00 1.18544
7.50 1.18748
8.00 1.18935
8.50 1.19127
9.00 1.19341
9.50 1.19729
10.00 1.20069
10.50 1.20365
11.00 1.20494
11.50 1.20623
12.00 1.20701
12.50 1.20514
13.00 1.20334
13.50 1.20199
14.00 1.20080
14.50 1.19866
15.00 1.19565
15.50 1.19294
16.00 1.19143
16.50 1.19001
17.00 1.18912
17.50 1.18853
18.00 1.18785
18.50 1.18698
19.00 1.18620
19.50 1.18760
20.00 1.18941
20.50 1.18881
21.00 1.18686
21.50 1.18496
22.00 1.18340
22.50 1.18582
23.00 1.17957
23.50 1.17369
24.00 1.16790
24.50 1.16212
25.00 1.15094
25.50 1.13804
26.00 1.12735
26.50 1.11700
27.00 1.10614
27.50 1.09385
28.00 1.08186
28.50 1.07155
29.00 1.06132
29.50 1.05118
30.00 1.04178
30.50 1.03401
31.00 1.02563
31.50 1.01596
32.00 1.00634
32.50 0.99742
33.00 0.99013
33.50 0.98183
34.00 0.96957
34.50 0.95733
35.00 0.94464
35.50 0.93152
36.00 0.91671
36.50 0.90019
37.00 0.88367
37.50 0.86623
38.00 0.84716
38.50 0.82928
39.00 0.81300
39.50 0.79695
40.00 0.78096
40.50 0.76571
41.00 0.75183
41.50 0.73818
42.00 0.72467
42.50 0.71229
43.00 0.69986
43.50 0.68843
44.00 0.67669
44.50 0.66464
45.00 0.65352
45.50 0.64196
46.00 0.62968
46.50 0.61718
47.00 0.60481
47.50 0.59137
48.00 0.57783
48.50 0.56360
49.00 0.54869
49.50 0.53398
50.00 0.51970
50.50 0.50546
51.00 0.48991
51.50 0.47434
52.00 0.45944
52.50 0.44642
53.00 0.43315
53.50 0.41720
54.00 0.40118
54.50 0.38615
55.00 0.37315
55.50 0.35790
56.00 0.33931
56.50 0.32061
57.00 0.30299
57.50 0.28563
58.00 0.26664
58.50 0.24595
59.00 0.22475
59.50 0.19993
60.00 0.17501
60.50 0.15581
61.00 0.13817
61.50 0.12015
62.00 0.09944
62.50 0.08255
63.00 0.06927
63.50 0.05955
64.00 0.04997
64.50 0.04098
65.00 0.03487
65.50 0.02874
66.00 0.02373
66.50 0.01952
67.00 0.01685
67.50 0.01417
68.00 0.01149
68.50 0.00967
69.00 0.00832
69.50 0.00695
70.00 0.00558
70.50 0.00487
71.00 0.00416
71.50 0.00343
72.00 0.00287
72.50 0.00250
73.00 0.00214
73.50 0.00178
74.00 0.00161
74.50 0.00144
75.00 0.00127
75.50 0.00111
76.00 0.00102
76.50 0.00095
77.00 0.00089
77.50 0.00083
78.00 0.00078
78.50 0.00073
79.00 0.00069
79.50 0.00066
80.00 0.00063
80.50 0.00060
81.00 0.00056
81.50 0.00053
82.00 0.00050
82.50 0.00047
83.00 0.00044
83.50 0.00041
84.00 0.00039
84.50 0.00036
85.00 0.00033
85.50 0.00030
86.00 0.00028
86.50 0.00025
87.00 0.00022
87.50 0.00020
88.00 0.00017
88.50 0.00015
89.00 0.00014
89.50 0.00013
90.00 0.00012
90.00 0.00012
90.50 0.00013
91.00 0.00014
91.50 0.00015
92.00 0.00017
92.50 0.00020
93.00 0.00022
93.50 0.00025
94.00 0.00028
94.50 0.00030
95.00 0.00033
95.50 0.00036
96.00 0.00039
96.50 0.00041
97.00 0.00044
97.50 0.00047
98.00 0.00050
98.50 0.00053
99.00 0.00056
99.50 0.00060
100.00 0.00063
100.50 0.00066
101.00 0.00069
101.50 0.00073
102.00 0.00078
102.50 0.00083
103.00 0.00089
103.50 0.00095
104.00 0.00102
104.50 0.00111
105.00 0.00127
105.50 0.00144
106.00 0.00161
106.50 0.00178
107.00 0.00214
107.50 0.00250
108.00 0.00287
108.50 0.00343
109.00 0.00416
109.50 0.00487
110.00 0.00558
110.50 0.00695
111.00 0.00832
111.50 0.00967
112.00 0.01149
112.50 0.01417
113.00 0.01685
113.50 0.01952
114.00 0.02373
114.50 0.02874
115.00 0.03487
115.50 0.04098
116.00 0.04997
116.50 0.05955
117.00 0.06927
117.50 0.08255
118.00 0.09944
118.50 0.12015
119.00 0.13817
119.50 0.15581
120.00 0.17501
120.50 0.19993
121.00 0.22475
121.50 0.24595
122.00 0.26664
122.50 0.28563
123.00 0.30299
123.50 0.32061
124.00 0.33931
124.50 0.35790
125.00 0.37315
125.50 0.38615
126.00 0.40118
126.50 0.41720
127.00 0.43315
127.50 0.44642
128.00 0.45944
128.50 0.47434
129.00 0.48991
129.50 0.50546
130.00 0.51970
130.50 0.53398
131.00 0.54869
131.50 0.56360
132.00 0.57783
132.50 0.59137
133.00 0.60481
133.50 0.61718
134.00 0.62968
134.50 0.64196
135.00 0.65352
135.50 0.66464
136.00 0.67669
136.50 0.68843
137.00 0.69986
137.50 0.71229
138.00 0.72467
138.50 0.73818
139.00 0.75183
139.50 0.76571
140.00 0.78096
140.50 0.79695
141.00 0.81300
141.50 0.82928
142.00 0.84716
142.50 0.86623
143.00 0.88367
143.50 0.90019
144.00 0.91671
144.50 0.93152
145.00 0.94464
145.50 0.95733
146.00 0.96957
146.50 0.98183
147.00 0.99013
147.50 0.99742
148.00 1.00634
148.50 1.01596
149.00 1.02563
149.50 1.03401
150.00 1.04178
150.50 1.05118
151.00 1.06132
151.50 1.07155
152.00 1.08186
152.50 1.09385
153.00 1.10614
153.50 1.11700
154.00 1.12735
154.50 1.13804
155.00 1.15094
155.50 1.16212
156.00 1.16790
156.50 1.17369
157.00 1.17957
157.50 1.18582
158.00 1.18340
158.50 1.18496
159.00 1.18686
159.50 1.18881
160.00 1.18941
160.50 1.18760
161.00 1.18620
161.50 1.18698
162.00 1.18785
162.50 1.18853
163.00 1.18912
163.50 1.19001
164.00 1.19143
164.50 1.19294
165.00 1.19565
165.50 1.19866
166.00 1.20080
166.50 1.20199
167.00 1.20334
167.50 1.20514
168.00 1.20701
168.50 1.20623
169.00 1.20494
169.50 1.20365
170.00 1.20069
170.50 1.19729
171.00 1.19341
171.50 1.19127
172.00 1.18935
172.50 1.18748
173.00 1.18544
173.50 1.18350
174.00 1.18246
174.50 1.18179
175.00 1.18176
175.50 1.18244
176.00 1.18322
176.50 1.18377
177.00 1.18449
177.50 1.18592
178.00 1.18744
178.50 1.18907
179.00 1.19008
179.50 1.19112
180.00 1.19224
180.00 1.19224
180.50 1.19112
181.00 1.19008
181.50 1.18907
182.00 1.18744
182.50 1.18592
183.00 1.18449
183.50 1.18377
184.00 1.18322
184.50 1.18244
185.00 1.18176
185.50 1.18179
186.00 1.18246
186.50 1.18350
187.00 1.18544
187.50 1.18748
188.00 1.18935
188.50 1.19127
189.00 1.19341
189.50 1.19729
190.00 1.20069
190.50 1.20365
191.00 1.20494
191.50 1.20623
192.00 1.20701
192.50 1.20514
193.00 1.20334
193.50 1.20199
194.00 1.20080
194.50 1.19866
195.00 1.19565
195.50 1.19294
196.00 1.19143
196.50 1.19001
197.00 1.18912
197.50 1.18853
198.00 1.18785
198.50 1.18698
199.00 1.18620
199.50 1.18760
200.00 1.18941
200.50 1.18881
201.00 1.18686
201.50 1.18496
202.00 1.18340
202.50 1.18582
203.00 1.17957
203.50 1.17369
204.00 1.16790
204.50 1.16212
205.00 1.15094
205.50 1.13804
206.00 1.12735
206.50 1.11700
207.00 1.10614
207.50 1.09385
208.00 1.08186
208.50 1.07155
209.00 1.06132
209.50 1.05118
210.00 1.04178
210.50 1.03401
211.00 1.02563
211.50 1.01596
212.00 1.00634
212.50 0.99742
213.00 0.99013
213.50 0.98183
214.00 0.96957
214.50 0.95733
215.00 0.94464
215.50 0.93152
216.00 0.91671
216.50 0.90019
217.00 0.88367
217.50 0.86623
218.00 0.84716
218.50 0.82928
219.00 0.81300
219.50 0.79695
220.00 0.78096
220.50 0.76571
221.00 0.75183
221.50 0.73818
222.00 0.72467
222.50 0.71229
223.00 0.69986
223.50 0.68843
224.00 0.67669
224.50 0.66464
225.00 0.65352
225.50 0.64196
226.00 0.62968
226.50 0.61718
227.00 0.60481
227.50 0.59137
228.00 0.57783
228.50 0.56360
229.00 0.54869
229.50 0.53398
230.00 0.51970
230.50 0.50546
231.00 0.48991
231.50 0.47434
232.00 0.45944
232.50 0.44642
233.00 0.43315
233.50 0.41720
234.00 0.40118
234.50 0.38615
235.00 0.37315
235.50 0.35790
236.00 0.33931
236.50 0.32061
237.00 0.30299
237.50 0.28563
238.00 0.26664
238.50 0.24595
239.00 0.22475
239.50 0.19993
240.00 0.17501
240.50 0.15581
241.00 0.13817
241.50 0.12015
242.00 0.09944
242.50 0.08255
243.00 0.06927
243.50 0.05955
244.00 0.04997
244.50 0.04098
245.00 0.03487
245.50 0.02874
246.00 0.02373
246.50 0.01952
247.00 0.01685
247.50 0.01417
248.00 0.01149
248.50 0.00967
249.00 0.00832
249.50 0.00695
250.00 0.00558
250.50 0.00487
251.00 0.00416
251.50 0.00343
252.00 0.00287
252.50 0.00250
253.00 0.00214
253.50 0.00178
254.00 0.00161
254.50 0.00144
255.00 0.00127
255.50 0.00111
256.00 0.00102
256.50 0.00095
257.00 0.00089
257.50 0.00083
258.00 0.00078
258.50 0.00073
259.00 0.00069
259.50 0.00066
260.00 0.00063
260.50 0.00060
261.00 0.00056
261.50 0.00053
262.00 0.00050
262.50 0.00047
263.00 0.00044
263.50 0.00041
264.00 0.00039
264.50 0.00036
265.00 0.00033
265.50 0.00030
266.00 0.00028
266.50 0.00025
267.00 0.00022
267.50 0.00020
268.00 0.00017
268.50 0.00015
269.00 0.00014
269.50 0.00013
270.00 0.00012
270.00 0.00012
270.50 0.00013
271.00 0.00014
271.50 0.00015
272.00 0.00017
272.50 0.00020
273.00 0.00022
273.50 0.00025
274.00 0.00028
274.50 0.00030
275.00 0.00033
275.50 0.00036
276.00 0.00039
276.50 0.00041
277.00 0.00044
277.50 0.00047
278.00 0.00050
278.50 0.00053
279.00 0.00056
279.50 0.00060
280.00 0.00063
280.50 0.00066
281.00 0.00069
281.50 0.00073
282.00 0.00078
282.50 0.00083
283.00 0.00089
283.50 0.00095
284.00 0.00102
284.50 0.00111
285.00 0.00127
285.50 0.00144
286.00 0.00161
286.50 0.00178
287.00 0.00214
287.50 0.00250
288.00 0.00287
288.50 0.00343
289.00 0.00416
289.50 0.00487
290.00 0.00558
290.50 0.00695
291.00 0.00832
291.50 0.00967
292.00 0.01149
292.50 0.01417
293.00 0.01685
293.50 0.01952
294.00 0.02373
294.50 0.02874
295.00 0.03487
295.50 0.04098
296.00 0.04997
296.50 0.05955
297.00 0.06927
297.50 0.08255
298.00 0.09944
298.50 0.12015
299.00 0.13817
299.50 0.15581
300.00 0.17501
300.50 0.19993
301.00 0.22475
301.50 0.24595
302.00 0.26664
302.50 0.28563
303.00 0.30299
303.50 0.32061
304.00 0.33931
304.50 0.35790
305.00 0.37315
305.50 0.38615
306.00 0.40118
306.50 0.41720
307.00 0.43315
307.50 0.44642
308.00 0.45944
308.50 0.47434
309.00 0.48991
309.50 0.50546
310.00 0.51970
310.50 0.53398
311.00 0.54869
311.50 0.56360
312.00 0.57783
312.50 0.59137
313.00 0.60481
313.50 0.61718
314.00 0.62968
314.50 0.64196
315.00 0.65352
315.50 0.66464
316.00 0.67669
316.50 0.68843
317.00 0.69986
317.50 0.71229
318.00 0.72467
318.50 0.73818
319.00 0.75183
319.50 0.76571
320.00 0.78096
320.50 0.79695
321.00 0.81300
321.50 0.82928
322.00 0.84716
322.50 0.86623
323.00 0.88367
323.50 0.90019
324.00 0.91671
324.50 0.93152
325.00 0.94464
325.50 0.95733
326.00 0.96957
326.50 0.98183
327.00 0.99013
327.50 0.99742
328.00 1.00634
328.50 1.01596
329.00 1.02563
329.50 1.03401
330.00 1.04178
330.50 1.05118
331.00 1.06132
331.50 1.07155
332.00 1.08186
332.50 1.09385
333.00 1.10614
333.50 1.11700
334.00 1.12735
334.50 1.13804
335.00 1.15094
335.50 1.16212
336.00 1.16790
336.50 1.17369
337.00 1.17957
337.50 1.18582
338.00 1.18340
338.50 1.18496
339.00 1.18686
339.50 1.18881
340.00 1.18941
340.50 1.18760
341.00 1.18620
341.50 1.18698
342.00 1.18785
342.50 1.18853
343.00 1.18912
343.50 1.19001
344.00 1.19143
344.50 1.19294
345.00 1.19565
345.50 1.19866
346.00 1.20080
346.50 1.20199
347.00 1.20334
347.50 1.20514
348.00 1.20701
348.50 1.20623
349.00 1.20494
349.50 1.20365
350.00 1.20069
350.50 1.19729
351.00 1.19341
351.50 1.19127
352.00 1.18935
352.50 1.18748
353.00 1.18544
353.50 1.18350
354.00 1.18246
354.50 1.18179
355.00 1.18176
355.50 1.18244
356.00 1.18322
356.50 1.18377
357.00 1.18449
357.50 1.18592
358.00 1.18744
358.50 1.18907
359.00 1.19008
359.50 1.19112
360.00 1.19224
