phi[deg] B[T]
0.00 1.27647
0.50 1.27576
1.00 1.27521
1.50 1.27409
2.00 1.27174
2.50 1.26937
3.00 1.26711
3.50 1.26310
4.00 1.25905
4.50 1.25496
5.00 1.25089
5.50 1.24619
6.00 1.23845
6.50 1.23064
7.00 1.22371
7.50 1.21677
8.00 1.20436
8.50 1.19160
9.00 1.17875
9.50 1.16883
10.00 1.15486
10.50 1.13923
11.00 1.12345
11.50 1.10750
12.00 1.09138
12.50 1.07140
13.00 1.04785
13.50 1.02413
14.00 1.00023
14.50 0.97558
15.00 0.94994
15.50 0.92405
16.00 0.89793
16.50 0.86937
17.00 0.83802
17.50 0.80268
18.00 0.76711
18.50 0.73129
19.00 0.69524
19.50 0.66118
20.00 0.62732
20.50 0.59325
21.00 0.55899
21.50 0.52123
22.00 0.47882
22.50 0.44271
23.00 0.41025
23.50 0.37766
24.00 0.34461
24.50 0.31245
25.00 0.28955
25.50 0.26661
26.00 0.24365
26.50 0.22065
27.00 0.19760
27.50 0.17433
28.00 0.15772
28.50 0.14375
29.00 0.13142
29.50 0.11910
30.00 0.10679
30.50 0.09462
31.00 0.08482
31.50 0.07502
32.00 0.06862
32.50 0.06318
33.00 0.05775
33.50 0.05249
34.00 0.04728
34.50 0.04208
35.00 0.03689
35.50 0.03234
36.00 0.02967
36.50 0.02700
37.00 0.02433
37.50 0.02203
38.00 0.01999
38.50 0.01795
39.00 0.01591
39.50 0.01403
40.00 0.01271
40.50 0.01145
41.00 0.01048
41.50 0.00951
42.00 0.00854
42.50 0.00757
43.00 0.00681
43.50 0.00622
44.00 0.00563
44.50 0.00505
45.00 0.00446
45.50 0.00410
46.00 0.00375
46.50 0.00339
47.00 0.00303
47.50 0.00267
48.00 0.00246
48.50 0.00226
49.00 0.00206
49.50 0.00185
50.00 0.00165
50.50 0.00149
51.00 0.00135
51.50 0.00123
52.00 0.00114
52.50 0.00105
53.00 0.00096
53.50 0.00087
54.00 0.00079
54.50 0.00071
55.00 0.00067
55.50 0.00063
56.00 0.00060
56.50 0.00056
57.00 0.00053
57.50 0.00049
58.00 0.00045
58.50 0.00042
59.00 0.00041
59.50 0.00039
60.00 0.00037
60.50 0.00036
61.00 0.00034
61.50 0.00033
62.00 0.00031
62.50 0.00030
63.00 0.00029
63.50 0.00028
64.00 0.00027
64.50 0.00027
65.00 0.00026
65.50 0.00025
66.00 0.00024
66.50 0.00024
67.00 0.00023
67.50 0.00023
68.00 0.00022
68.50 0.00021
69.00 0.00021
69.50 0.00020
70.00 0.00020
70.50 0.00019
71.00 0.00019
71.50 0.00018
72.00 0.00018
72.50 0.00017
73.00 0.00017
73.50 0.00016
74.00 0.00016
74.50 0.00015
75.00 0.00015
75.50 0.00014
76.00 0.00014
76.50 0.00013
77.00 0.00013
77.50 0.00012
78.00 0.00012
78.50 0.00012
79.00 0.00011
79.50 0.00011
80.00 0.00010
80.50 0.00010
81.00 0.00009
81.50 0.00009
82.00 0.00008
82.50 0.00008
83.00 0.00007
83.50 0.00007
84.00 0.00006
84.50 0.00006
85.00 0.00005
85.50 0.00005
86.00 0.00004
86.50 0.00004
87.00 0.00003
87.50 0.00003
88.00 0.00002
88.50 0.00002
89.00 0.00002
89.50 0.00002
90.00 0.00001
90.00 0.00001
90.50 0.00002
91.00 0.00002
91.50 0.00002
92.00 0.00002
92.50 0.00003
93.00 0.00003
93.50 0.00004
94.00 0.00004
94.50 0.00005
95.00 0.00005
95.50 0.00006
96.00 0.00006
96.50 0.00007
97.00 0.00007
97.50 0.00008
98.00 0.00008
98.50 0.00009
99.00 0.00009
99.50 0.00010
100.00 0.00010
100.50 0.00011
101.00 0.00011
101.50 0.00012
102.00 0.00012
102.50 0.00012
103.00 0.00013
103.50 0.00013
104.00 0.00014
104.50 0.00014
105.00 0.00015
105.50 0.00015
106.00 0.00016
106.50 0.00016
107.00 0.00017
107.50 0.00017
108.00 0.00018
108.50 0.00018
109.00 0.00019
109.50 0.00019
110.00 0.00020
110.50 0.00020
111.00 0.00021
111.50 0.00021
112.00 0.00022
112.50 0.00023
113.00 0.00023
113.50 0.00024
114.00 0.00024
114.50 0.00025
115.00 0.00026
115.50 0.00027
116.00 0.00027
116.50 0.00028
117.00 0.00029
117.50 0.00030
118.00 0.00031
118.50 0.00033
119.00 0.00034
119.50 0.00036
120.00 0.00037
120.50 0.00039
121.00 0.00041
121.50 0.00042
122.00 0.00045
122.50 0.00049
123.00 0.00053
123.50 0.00056
124.00 0.00060
124.50 0.00063
125.00 0.00067
125.50 0.00071
126.00 0.00079
126.50 0.00087
127.00 0.00096
127.50 0.00105
128.00 0.00114
128.50 0.00123
129.00 0.00135
129.50 0.00149
130.00 0.00165
130.50 0.00185
131.00 0.00206
131.50 0.00226
132.00 0.00246
132.50 0.00267
133.00 0.00303
133.50 0.00339
134.00 0.00375
134.50 0.00410
135.00 0.00446
135.50 0.00505
136.00 0.00563
136.50 0.00622
137.00 0.00681
137.50 0.00757
138.00 0.00854
138.50 0.00951
139.00 0.01048
139.50 0.01145
140.00 0.01271
140.50 0.01403
141.00 0.01591
141.50 0.01795
142.00 0.01999
142.50 0.02203
143.00 0.02433
143.50 0.02700
144.00 0.02967
144.50 0.03234
145.00 0.03689
145.50 0.04208
146.00 0.04728
146.50 0.05249
147.00 0.05775
147.50 0.06318
148.00 0.06862
148.50 0.07502
149.00 0.08482
149.50 0.09462
150.00 0.10679
150.50 0.11910
151.00 0.13142
151.50 0.14375
152.00 0.15772
152.50 0.17433
153.00 0.19760
153.50 0.22065
154.00 0.24365
154.50 0.26661
155.00 0.28955
155.50 0.31245
156.00 0.34461
156.50 0.37766
157.00 0.41025
157.50 0.44271
158.00 0.47882
158.50 0.52123
159.00 0.55899
159.50 0.59325
160.00 0.62732
160.50 0.66118
161.00 0.69524
161.50 0.73129
162.00 0.76711
162.50 0.80268
163.00 0.83802
163.50 0.86937
164.00 0.89793
164.50 0.92405
165.00 0.94994
165.50 0.97558
166.00 1.00023
166.50 1.02413
167.00 1.04785
167.50 1.07140
168.00 1.09138
168.50 1.10750
169.00 1.12345
169.50 1.13923
170.00 1.15486
170.50 1.16883
171.00 1.17875
171.50 1.19160
172.00 1.20436
172.50 1.21677
173.00 1.22371
173.50 1.23064
174.00 1.23845
174.50 1.24619
175.00 1.25089
175.50 1.25496
176.00 1.25905
176.50 1.26310
177.00 1.26711
177.50 1.26937
178.00 1.27174
178.50 1.27409
179.00 1.27521
179.50 1.27576
180.00 1.27647
180.00 1.27647
180.50 1.27576
181.00 1.27521
181.50 1.27409
182.00 1.27174
182.50 1.26937
183.00 1.26711
183.50 1.26310
184.00 1.25905
184.50 1.25496
185.00 1.25089
185.50 1.24619
186.00 1.23845
186.50 1.23064
187.00 1.22371
187.50 1.21677
188.00 1.20436
188.50 1.19160
189.00 1.17875
189.50 1.16883
190.00 1.15486
190.50 1.13923
191.00 1.12345
191.50 1.10750
192.00 1.09138
192.50 1.07140
193.00 1.04785
193.50 1.02413
194.00 1.00023
194.50 0.97558
195.00 0.94994
195.50 0.92405
196.00 0.89793
196.50 0.86937
197.00 0.83802
197.50 0.80268
198.00 0.76711
198.50 0.73129
199.00 0.69524
199.50 0.66118
200.00 0.62732
200.50 0.59325
201.00 0.55899
201.50 0.52123
202.00 0.47882
202.50 0.44271
203.00 0.41025
203.50 0.37766
204.00 0.34461
204.50 0.31245
205.00 0.28955
205.50 0.26661
206.00 0.24365
206.50 0.22065
207.00 0.19760
207.50 0.17433
208.00 0.15772
208.50 0.14375
209.00 0.13142
209.50 0.11910
210.00 0.10679
210.50 0.09462
211.00 0.08482
211.50 0.07502
212.00 0.06862
212.50 0.06318
213.00 0.05775
213.50 0.05249
214.00 0.04728
214.50 0.04208
215.00 0.03689
215.50 0.03234
216.00 0.02967
216.50 0.02700
217.00 0.02433
217.50 0.02203
218.00 0.01999
218.50 0.01795
219.00 0.01591
219.50 0.01403
220.00 0.01271
220.50 0.01145
221.00 0.01048
221.50 0.00951
222.00 0.00854
222.50 0.00757
223.00 0.00681
223.50 0.00622
224.00 0.00563
224.50 0.00505
225.00 0.00446
225.50 0.00410
226.00 0.00375
226.50 0.00339
227.00 0.00303
227.50 0.00267
228.00 0.00246
228.50 0.00226
229.00 0.00206
229.50 0.00185
230.00 0.00165
230.50 0.00149
231.00 0.00135
231.50 0.00123
232.00 0.00114
232.50 0.00105
233.00 0.00096
233.50 0.00087
234.00 0.00079
234.50 0.00071
235.00 0.00067
235.50 0.00063
236.00 0.00060
236.50 0.00056
237.00 0.00053
237.50 0.00049
238.00 0.00045
238.50 0.00042
239.00 0.00041
239.50 0.00039
240.00 0.00037
240.50 0.00036
241.00 0.00034
241.50 0.00033
242.00 0.00031
242.50 0.00030
243.00 0.00029
243.50 0.00028
244.00 0.00027
244.50 0.00027
245.00 0.00026
245.50 0.00025
246.00 0.00024
246.50 0.00024
247.00 0.00023
247.50 0.00023
248.00 0.00022
248.50 0.00021
249.00 0.00021
249.50 0.00020
250.00 0.00020
250.50 0.00019
251.00 0.00019
251.50 0.00018
252.00 0.00018
252.50 0.00017
253.00 0.00017
253.50 0.00016
254.00 0.00016
254.50 0.00015
255.00 0.00015
255.50 0.00014
256.00 0.00014
256.50 0.00013
257.00 0.00013
257.50 0.00012
258.00 0.00012
258.50 0.00012
259.00 0.00011
259.50 0.00011
260.00 0.00010
260.50 0.00010
261.00 0.00009
261.50 0.00009
262.00 0.00008
262.50 0.00008
263.00 0.00007
263.50 0.00007
264.00 0.00006
264.50 0.00006
265.00 0.00005
265.50 0.00005
266.00 0.00004
266.50 0.00004
267.00 0.00003
267.50 0.00003
268.00 0.00002
268.50 0.00002
269.00 0.00002
269.50 0.00002
270.00 0.00001
270.00 0.00001
270.50 0.00002
271.00 0.00002
271.50 0.00002
272.00 0.00002
272.50 0.00003
273.00 0.00003
273.50 0.00004
274.00 0.00004
274.50 0.00005
275.00 0.00005
275.50 0.00006
276.00 0.00006
276.50 0.00007
277.00 0.00007
277.50 0.00008
278.00 0.00008
278.50 0.00009
279.00 0.00009
279.50 0.00010
280.00 0.00010
280.50 0.00011
281.00 0.00011
281.50 0.00012
282.00 0.00012
282.50 0.00012
283.00 0.00013
283.50 0.00013
284.00 0.00014
284.50 0.00014
285.00 0.00015
285.50 0.00015
286.00 0.00016
286.50 0.00016
287.00 0.00017
287.50 0.00017
288.00 0.00018
288.50 0.00018
289.00 0.00019
289.50 0.00019
290.00 0.00020
290.50 0.00020
291.00 0.00021
291.50 0.00021
292.00 0.00022
292.50 0.00023
293.00 0.00023
293.50 0.00024
294.00 0.00024
294.50 0.00025
295.00 0.00026
295.50 0.00027
296.00 0.00027
296.50 0.00028
297.00 0.00029
297.50 0.00030
298.00 0.00031
298.50 0.00033
299.00 0.00034
299.50 0.00036
300.00 0.00037
300.50 0.00039
301.00 0.00041
301.50 0.00042
302.00 0.00045
302.50 0.00049
303.00 0.00053
303.50 0.00056
304.00 0.00060
304.50 0.00063
305.00 0.00067
305.50 0.00071
306.00 0.00079
306.50 0.00087
307.00 0.00096
307.50 0.00105
308.00 0.00114
308.50 0.00123
309.00 0.00135
309.50 0.00149
310.00 0.00165
310.50 0.00185
311.00 0.00206
311.50 0.00226
312.00 0.00246
312.50 0.00267
313.00 0.00303
313.50 0.00339
314.00 0.00375
314.50 0.00410
315.00 0.00446
315.50 0.00505
316.00 0.00563
316.50 0.00622
317.00 0.00681
317.50 0.00757
318.00 0.00854
318.50 0.00951
319.00 0.01048
319.50 0.01145
320.00 0.01271
320.50 0.01403
321.00 0.01591
321.50 0.01795
322.00 0.01999
322.50 0.02203
323.00 0.02433
323.50 0.02700
324.00 0.02967
324.50 0.03234
325.00 0.03689
325.50 0.04208
326.00 0.04728
326.50 0.05249
327.00 0.05775
327.50 0.06318
328.00 0.06862
328.50 0.07502
329.00 0.08482
329.50 0.09462
330.00 0.10679
330.50 0.11910
331.00 0.13142
331.50 0.14375
332.00 0.15772
332.50 0.17433
333.00 0.19760
333.50 0.22065
334.00 0.24365
334.50 0.26661
335.00 0.28955
335.50 0.31245
336.00 0.34461
336.50 0.37766
337.00 0.41025
337.50 0.44271
338.00 0.47882
338.50 0.52123
339.00 0.55899
339.50 0.59325
340.00 0.62732
340.50 0.66118
341.00 0.69524
341.50 0.73129
342.00 0.76711
342.50 0.80268
343.00 0.83802
343.50 0.86937
344.00 0.89793
344.50 0.92405
345.00 0.94994
345.50 0.97558
346.00 1.00023
346.50 1.02413
347.00 1.04785
347.50 1.07140
348.00 1.09138
348.50 1.10750
349.00 1.12345
349.50 1.13923
350.00 1.15486
350.50 1.16883
351.00 1.17875
351.50 1.19160
352.00 1.20436
352.50 1.21677
353.00 1.22371
353.50 1.23064
354.00 1.23845
354.50 1.24619
355.00 1.25089
355.50 1.25496
356.00 1.25905
356.50 1.26310
357.00 1.26711
357.50 1.26937
358.00 1.27174
358.50 1.27409
359.00 1.27521
359.50 1.27576
360.00 1.27647
