phi[deg] B[T]
0.00 1.17207
0.50 1.17084
1.00 1.16967
1.50 1.16853
2.00 1.16663
2.50 1.16482
3.00 1.16310
3.50 1.16197
4.00 1.16098
4.50 1.15962
5.00 1.15835
5.50 1.15778
6.00 1.15782
6.50 1.15817
7.00 1.15929
7.50 1.16050
8.00 1.16162
8.50 1.16279
9.00 1.16417
9.50 1.16709
10.00 1.16966
10.50 1.17191
11.00 1.17261
11.50 1.17331
12.00 1.17360
12.50 1.17169
13.00 1.16985
13.50 1.16824
14.00 1.16673
14.50 1.16445
15.00 1.16147
15.50 1.15871
16.00 1.15678
16.50 1.15493
17.00 1.15364
17.50 1.15266
18.00 1.15144
18.50 1.14982
19.00 1.14829
19.50 1.14891
20.00 1.14993
20.50 1.14836
21.00 1.14534
21.50 1.14236
22.00 1.13971
22.50 1.14118
23.00 1.13395
23.50 1.12675
24.00 1.11958
24.50 1.11240
25.00 1.09969
25.50 1.08521
26.00 1.07244
26.50 1.05993
27.00 1.04673
27.50 1.03166
28.00 1.01687
28.50 1.00368
29.00 0.99056
29.50 0.97749
30.00 0.96443
30.50 0.95258
31.00 0.94079
31.50 0.92860
32.00 0.91647
32.50 0.90492
33.00 0.89462
33.50 0.88399
34.00 0.87191
34.50 0.85988
35.00 0.84860
35.50 0.83808
36.00 0.82643
36.50 0.81363
37.00 0.80086
37.50 0.78851
38.00 0.77685
38.50 0.76442
39.00 0.75087
39.50 0.73721
40.00 0.72358
40.50 0.70986
41.00 0.69597
41.50 0.68125
42.00 0.66608
42.50 0.65099
43.00 0.63552
43.50 0.61949
44.00 0.60359
44.50 0.58714
45.00 0.57050
45.50 0.55349
46.00 0.53741
46.50 0.52151
47.00 0.50589
47.50 0.49206
48.00 0.47949
48.50 0.46892
49.00 0.45909
49.50 0.45066
50.00 0.44556
50.50 0.44314
51.00 0.43585
51.50 0.42856
52.00 0.42282
52.50 0.42021
53.00 0.41505
53.50 0.40583
54.00 0.39652
54.50 0.38774
55.00 0.38010
55.50 0.36933
56.00 0.35386
56.50 0.33824
57.00 0.32262
57.50 0.30690
58.00 0.28872
58.50 0.26800
59.00 0.24656
59.50 0.21976
60.00 0.19285
60.50 0.17209
61.00 0.15300
61.50 0.13344
62.00 0.11053
62.50 0.09173
63.00 0.07683
63.50 0.06611
64.00 0.05555
64.50 0.04563
65.00 0.03882
65.50 0.03199
66.00 0.02641
66.50 0.02174
67.00 0.01877
67.50 0.01579
68.00 0.01280
68.50 0.01077
69.00 0.00926
69.50 0.00773
70.00 0.00620
70.50 0.00540
71.00 0.00460
71.50 0.00378
72.00 0.00314
72.50 0.00272
73.00 0.00231
73.50 0.00190
74.00 0.00169
74.50 0.00148
75.00 0.00128
75.50 0.00110
76.00 0.00100
76.50 0.00091
77.00 0.00084
77.50 0.00076
78.00 0.00071
78.50 0.00065
79.00 0.00061
79.50 0.00058
80.00 0.00056
80.50 0.00052
81.00 0.00049
81.50 0.00046
82.00 0.00044
82.50 0.00041
83.00 0.00038
83.50 0.00036
84.00 0.00033
84.50 0.00031
85.00 0.00028
85.50 0.00026
86.00 0.00024
86.50 0.00021
87.00 0.00019
87.50 0.00016
88.00 0.00014
88.50 0.00012
89.00 0.00011
89.50 0.00010
90.00 0.00009
90.00 0.00009
90.50 0.00010
91.00 0.00011
91.50 0.00012
92.00 0.00014
92.50 0.00016
93.00 0.00019
93.50 0.00021
94.00 0.00024
94.50 0.00026
95.00 0.00028
95.50 0.00031
96.00 0.00033
96.50 0.00036
97.00 0.00038
97.50 0.00041
98.00 0.00044
98.50 0.00046
99.00 0.00049
99.50 0.00052
100.00 0.00056
100.50 0.00058
101.00 0.00061
101.50 0.00065
102.00 0.00071
102.50 0.00076
103.00 0.00084
103.50 0.00091
104.00 0.00100
104.50 0.00110
105.00 0.00128
105.50 0.00148
106.00 0.00169
106.50 0.00190
107.00 0.00231
107.50 0.00272
108.00 0.00314
108.50 0.00378
109.00 0.00460
109.50 0.00540
110.00 0.00620
110.50 0.00773
111.00 0.00926
111.50 0.01077
112.00 0.01280
112.50 0.01579
113.00 0.01877
113.50 0.02174
114.00 0.02641
114.50 0.03199
115.00 0.03882
115.50 0.04563
116.00 0.05555
116.50 0.06611
117.00 0.07683
117.50 0.09173
118.00 0.11053
118.50 0.13344
119.00 0.15300
119.50 0.17209
120.00 0.19285
120.50 0.21976
121.00 0.24656
121.50 0.26800
122.00 0.28872
122.50 0.30690
123.00 0.32262
123.50 0.33824
124.00 0.35386
124.50 0.36933
125.00 0.38010
125.50 0.38774
126.00 0.39652
126.50 0.40583
127.00 0.41505
127.50 0.42021
128.00 0.42282
128.50 0.42856
129.00 0.43585
129.50 0.44314
130.00 0.44556
130.50 0.45066
131.00 0.45909
131.50 0.46892
132.00 0.47949
132.50 0.49206
133.00 0.50589
133.50 0.52151
134.00 0.53741
134.50 0.55349
135.00 0.57050
135.50 0.58714
136.00 0.60359
136.50 0.61949
137.00 0.63552
137.50 0.65099
138.00 0.66608
138.50 0.68125
139.00 0.69597
139.50 0.70986
140.00 0.72358
140.50 0.73721
141.00 0.75087
141.50 0.76442
142.00 0.77685
142.50 0.78851
143.00 0.80086
143.50 0.81363
144.00 0.82643
144.50 0.83808
145.00 0.84860
145.50 0.85988
146.00 0.87191
146.50 0.88399
147.00 0.89462
147.50 0.90492
148.00 0.91647
148.50 0.92860
149.00 0.94079
149.50 0.95258
150.00 0.96443
150.50 0.97749
151.00 0.99056
151.50 1.00368
152.00 1.01687
152.50 1.03166
153.00 1.04673
153.50 1.05993
154.00 1.07244
154.50 1.08521
155.00 1.09969
155.50 1.11240
156.00 1.11958
156.50 1.12675
157.00 1.13395
157.50 1.14118
158.00 1.13971
158.50 1.14236
159.00 1.14534
159.50 1.14836
160.00 1.14993
160.50 1.14891
161.00 1.14829
161.50 1.14982
162.00 1.15144
162.50 1.15266
163.00 1.15364
163.50 1.15493
164.00 1.15678
164.50 1.15871
165.00 1.16147
165.50 1.16445
166.00 1.16673
166.50 1.16824
167.00 1.16985
167.50 1.17169
168.00 1.17360
168.50 1.17331
169.00 1.17261
169.50 1.17191
170.00 1.16966
170.50 1.16709
171.00 1.16417
171.50 1.16279
172.00 1.16162
172.50 1.16050
173.00 1.15929
173.50 1.15817
174.00 1.15782
174.50 1.15778
175.00 1.15835
175.50 1.15962
176.00 1.16098
176.50 1.16197
177.00 1.16310
177.50 1.16482
178.00 1.16663
178.50 1.16853
179.00 1.16967
179.50 1.17084
180.00 1.17207
180.00 1.17207
180.50 1.17084
181.00 1.16967
181.50 1.16853
182.00 1.16663
182.50 1.16482
183.00 1.16310
183.50 1.16197
184.00 1.16098
184.50 1.15962
185.00 1.15835
185.50 1.15778
186.00 1.15782
186.50 1.15817
187.00 1.15929
187.50 1.16050
188.00 1.16162
188.50 1.16279
189.00 1.16417
189.50 1.16709
190.00 1.16966
190.50 1.17191
191.00 1.17261
191.50 1.17331
192.00 1.17360
192.50 1.17169
193.00 1.16985
193.50 1.16824
194.00 1.16673
194.50 1.16445
195.00 1.16147
195.50 1.15871
196.00 1.15678
196.50 1.15493
197.00 1.15364
197.50 1.15266
198.00 1.15144
198.50 1.14982
199.00 1.14829
199.50 1.14891
200.00 1.14993
200.50 1.14836
201.00 1.14534
201.50 1.14236
202.00 1.13971
202.50 1.14118
203.00 1.13395
203.50 1.12675
204.00 1.11958
204.50 1.11240
205.00 1.09969
205.50 1.08521
206.00 1.07244
206.50 1.05993
207.00 1.04673
207.50 1.03166
208.00 1.01687
208.50 1.00368
209.00 0.99056
209.50 0.97749
210.00 0.96443
210.50 0.95258
211.00 0.94079
211.50 0.92860
212.00 0.91647
212.50 0.90492
213.00 0.89462
213.50 0.88399
214.00 0.87191
214.50 0.85988
215.00 0.84860
215.50 0.83808
216.00 0.82643
216.50 0.81363
217.00 0.80086
217.50 0.78851
218.00 0.77685
218.50 0.76442
219.00 0.75087
219.50 0.73721
220.00 0.72358
220.50 0.70986
221.00 0.69597
221.50 0.68125
222.00 0.66608
222.50 0.65099
223.00 0.63552
223.50 0.61949
224.00 0.60359
224.50 0.58714
225.00 0.57050
225.50 0.55349
226.00 0.53741
226.50 0.52151
227.00 0.50589
227.50 0.49206
228.00 0.47949
228.50 0.46892
229.00 0.45909
229.50 0.45066
230.00 0.44556
230.50 0.44314
231.00 0.43585
231.50 0.42856
232.00 0.42282
232.50 0.42021
233.00 0.41505
233.50 0.40583
234.00 0.39652
234.50 0.38774
235.00 0.38010
235.50 0.36933
236.00 0.35386
236.50 0.33824
237.00 0.32262
237.50 0.30690
238.00 0.28872
238.50 0.26800
239.00 0.24656
239.50 0.21976
240.00 0.19285
240.50 0.17209
241.00 0.15300
241.50 0.13344
242.00 0.11053
242.50 0.09173
243.00 0.07683
243.50 0.06611
244.00 0.05555
244.50 0.04563
245.00 0.03882
245.50 0.03199
246.00 0.02641
246.50 0.02174
247.00 0.01877
247.50 0.01579
248.00 0.01280
248.50 0.01077
249.00 0.00926
249.50 0.00773
250.00 0.00620
250.50 0.00540
251.00 0.00460
251.50 0.00378
252.00 0.00314
252.50 0.00272
253.00 0.00231
253.50 0.00190
254.00 0.00169
254.50 0.00148
255.00 0.00128
255.50 0.00110
256.00 0.00100
256.50 0.00091
257.00 0.00084
257.50 0.00076
258.00 0.00071
258.50 0.00065
259.00 0.00061
259.50 0.00058
260.00 0.00056
260.50 0.00052
261.00 0.00049
261.50 0.00046
262.00 0.00044
262.50 0.00041
263.00 0.00038
263.50 0.00036
264.00 0.00033
264.50 0.00031
265.00 0.00028
265.50 0.00026
266.00 0.00024
266.50 0.00021
267.00 0.00019
267.50 0.00016
268.00 0.00014
268.50 0.00012
269.00 0.00011
269.50 0.00010
270.00 0.00009
270.00 0.00009
270.50 0.00010
271.00 0.00011
271.50 0.00012
272.00 0.00014
272.50 0.00016
273.00 0.00019
273.50 0.00021
274.00 0.00024
274.50 0.00026
275.00 0.00028
275.50 0.00031
276.00 0.00033
276.50 0.00036
277.00 0.00038
277.50 0.00041
278.00 0.00044
278.50 0.00046
279.00 0.00049
279.50 0.00052
280.00 0.00056
280.50 0.00058
281.00 0.00061
281.50 0.00065
282.00 0.00071
282.50 0.00076
283.00 0.00084
283.50 0.00091
284.00 0.00100
284.50 0.00110
285.00 0.00128
285.50 0.00148
286.00 0.00169
286.50 0.00190
287.00 0.00231
287.50 0.00272
288.00 0.00314
288.50 0.00378
289.00 0.00460
289.50 0.00540
290.00 0.00620
290.50 0.00773
291.00 0.00926
291.50 0.01077
292.00 0.01280
292.50 0.01579
293.00 0.01877
293.50 0.02174
294.00 0.02641
294.50 0.03199
295.00 0.03882
295.50 0.04563
296.00 0.05555
296.50 0.06611
297.00 0.07683
297.50 0.09173
298.00 0.11053
298.50 0.13344
299.00 0.15300
299.50 0.17209
300.00 0.19285
300.50 0.21976
301.00 0.24656
301.50 0.26800
302.00 0.28872
302.50 0.30690
303.00 0.32262
303.50 0.33824
304.00 0.35386
304.50 0.36933
305.00 0.38010
305.50 0.38774
306.00 0.39652
306.50 0.40583
307.00 0.41505
307.50 0.42021
308.00 0.42282
308.50 0.42856
309.00 0.43585
309.50 0.44314
310.00 0.44556
310.50 0.45066
311.00 0.45909
311.50 0.46892
312.00 0.47949
312.50 0.49206
313.00 0.50589
313.50 0.52151
314.00 0.53741
314.50 0.55349
315.00 0.57050
315.50 0.58714
316.00 0.60359
316.50 0.61949
317.00 0.63552
317.50 0.65099
318.00 0.66608
318.50 0.68125
319.00 0.69597
319.50 0.70986
320.00 0.72358
320.50 0.73721
321.00 0.75087
321.50 0.76442
322.00 0.77685
322.50 0.78851
323.00 0.80086
323.50 0.81363
324.00 0.82643
324.50 0.83808
325.00 0.84860
325.50 0.85988
326.00 0.87191
326.50 0.88399
327.00 0.89462
327.50 0.90492
328.00 0.91647
328.50 0.92860
329.00 0.94079
329.50 0.95258
330.00 0.96443
330.50 0.97749
331.00 0.99056
331.50 1.00368
332.00 1.01687
332.50 1.03166
333.00 1.04673
333.50 1.05993
334.00 1.07244
334.50 1.08521
335.00 1.09969
335.50 1.11240
336.00 1.11958
336.50 1.12675
337.00 1.13395
337.50 1.14118
338.00 1.13971
338.50 1.14236
339.00 1.14534
339.50 1.14836
340.00 1.14993
340.50 1.14891
341.00 1.14829
341.50 1.14982
342.00 1.15144
342.50 1.15266
343.00 1.15364
343.50 1.15493
344.00 1.15678
344.50 1.15871
345.00 1.16147
345.50 1.16445
346.00 1.16673
346.50 1.16824
347.00 1.16985
347.50 1.17169
348.00 1.17360
348.50 1.17331
349.00 1.17261
349.50 1.17191
350.00 1.16966
350.50 1.16709
351.00 1.16417
351.50 1.16279
352.00 1.16162
352.50 1.16050
353.00 1.15929
353.50 1.15817
354.00 1.15782
354.50 1.15778
355.00 1.15835
355.50 1.15962
356.00 1.16098
356.50 1.16197
357.00 1.16310
357.50 1.16482
358.00 1.16663
358.50 1.16853
359.00 1.16967
359.50 1.17084
360.00 1.17207
