phi[deg] B[T]
0.00 1.63166
0.50 1.63178
1.00 1.63203
1.50 1.63241
2.00 1.63293
2.50 1.63358
3.00 1.63457
3.50 1.63580
4.00 1.63715
4.50 1.63862
5.00 1.64021
5.50 1.64204
6.00 1.64419
6.50 1.64646
7.00 1.64886
7.50 1.65024
8.00 1.65130
8.50 1.65281
9.00 1.65465
9.50 1.65659
10.00 1.65865
10.50 1.66043
11.00 1.65945
11.50 1.65857
12.00 1.65915
12.50 1.65989
13.00 1.66072
13.50 1.66135
14.00 1.65974
14.50 1.65821
15.00 1.65676
15.50 1.65464
16.00 1.65147
16.50 1.64837
17.00 1.64527
17.50 1.64139
18.00 1.63757
18.50 1.63383
19.00 1.63015
19.50 1.62654
20.00 1.62193
20.50 1.61451
21.00 1.60754
21.50 1.60064
22.00 1.59379
22.50 1.58698
23.00 1.58021
23.50 1.57349
24.00 1.56148
24.50 1.54906
25.00 1.53651
25.50 1.52370
26.00 1.51091
26.50 1.49814
27.00 1.48541
27.50 1.47271
28.00 1.45605
28.50 1.43881
29.00 1.42159
29.50 1.40531
30.00 1.39031
30.50 1.37531
31.00 1.36032
31.50 1.34418
32.00 1.32577
32.50 1.30737
33.00 1.28898
33.50 1.26922
34.00 1.24875
34.50 1.22827
35.00 1.20779
35.50 1.18720
36.00 1.16659
36.50 1.14598
37.00 1.12372
37.50 1.10101
38.00 1.07831
38.50 1.05561
39.00 1.03336
39.50 1.01148
40.00 0.98968
40.50 0.96791
41.00 0.94616
41.50 0.92466
42.00 0.90377
42.50 0.88349
43.00 0.86323
43.50 0.84426
44.00 0.82554
44.50 0.80685
45.00 0.78757
45.50 0.76988
46.00 0.75298
46.50 0.73609
47.00 0.71942
47.50 0.70492
48.00 0.69041
48.50 0.67521
49.00 0.65829
49.50 0.64469
50.00 0.63108
50.50 0.61743
51.00 0.60376
51.50 0.58705
52.00 0.57140
52.50 0.55730
53.00 0.54312
53.50 0.52887
54.00 0.51497
54.50 0.50122
55.00 0.48740
55.50 0.47104
56.00 0.45272
56.50 0.43432
57.00 0.41574
57.50 0.39706
58.00 0.37830
58.50 0.35946
59.00 0.34055
59.50 0.32327
60.00 0.30617
60.50 0.28900
61.00 0.27079
61.50 0.25196
62.00 0.23309
62.50 0.21417
63.00 0.19718
63.50 0.18233
64.00 0.16743
64.50 0.15249
65.00 0.13853
65.50 0.12735
66.00 0.11745
66.50 0.10846
67.00 0.09947
67.50 0.09046
68.00 0.08145
68.50 0.07481
69.00 0.06953
69.50 0.06426
70.00 0.05899
70.50 0.05375
71.00 0.04887
71.50 0.04399
72.00 0.03911
72.50 0.03545
73.00 0.03306
73.50 0.03066
74.00 0.02826
74.50 0.02590
75.00 0.02354
75.50 0.02118
76.00 0.01882
76.50 0.01719
77.00 0.01591
77.50 0.01463
78.00 0.01335
78.50 0.01217
79.00 0.01117
79.50 0.01017
80.00 0.00917
80.50 0.00845
81.00 0.00780
81.50 0.00715
82.00 0.00655
82.50 0.00608
83.00 0.00561
83.50 0.00514
84.00 0.00473
84.50 0.00440
85.00 0.00407
85.50 0.00388
86.00 0.00369
86.50 0.00350
87.00 0.00331
87.50 0.00312
88.00 0.00302
88.50 0.00294
89.00 0.00285
89.50 0.00277
90.00 0.00269
90.00 0.00269
90.50 0.00277
91.00 0.00285
91.50 0.00294
92.00 0.00302
92.50 0.00312
93.00 0.00331
93.50 0.00350
94.00 0.00369
94.50 0.00388
95.00 0.00407
95.50 0.00440
96.00 0.00473
96.50 0.00514
97.00 0.00561
97.50 0.00608
98.00 0.00655
98.50 0.00715
99.00 0.00780
99.50 0.00845
100.00 0.00917
100.50 0.01017
101.00 0.01117
101.50 0.01217
102.00 0.01335
102.50 0.01463
103.00 0.01591
103.50 0.01719
104.00 0.01882
104.50 0.02118
105.00 0.02354
105.50 0.02590
106.00 0.02826
106.50 0.03066
107.00 0.03306
107.50 0.03545
108.00 0.03911
108.50 0.04399
109.00 0.04887
109.50 0.05375
110.00 0.05899
110.50 0.06426
111.00 0.06953
111.50 0.07481
112.00 0.08145
112.50 0.09046
113.00 0.09947
113.50 0.10846
114.00 0.11745
114.50 0.12735
115.00 0.13853
115.50 0.15249
116.00 0.16743
116.50 0.18233
117.00 0.19718
117.50 0.21417
118.00 0.23309
118.50 0.25196
119.00 0.27079
119.50 0.28900
120.00 0.30617
120.50 0.32327
121.00 0.34055
121.50 0.35946
122.00 0.37830
122.50 0.39706
123.00 0.41574
123.50 0.43432
124.00 0.45272
124.50 0.47104
125.00 0.48740
125.50 0.50122
126.00 0.51497
126.50 0.52887
127.00 0.54312
127.50 0.55730
128.00 0.57140
128.50 0.58705
129.00 0.60376
129.50 0.61743
130.00 0.63108
130.50 0.64469
131.00 0.65829
131.50 0.67521
132.00 0.69041
132.50 0.70492
133.00 0.71942
133.50 0.73609
134.00 0.75298
134.50 0.76988
135.00 0.78757
135.50 0.80685
136.00 0.82554
136.50 0.84426
137.00 0.86323
137.50 0.88349
138.00 0.90377
138.50 0.92466
139.00 0.94616
139.50 0.96791
140.00 0.98968
140.50 1.01148
141.00 1.03336
141.50 1.05561
142.00 1.07831
142.50 1.10101
143.00 1.12372
143.50 1.14598
144.00 1.16659
144.50 1.18720
145.00 1.20779
145.50 1.22827
146.00 1.24875
146.50 1.26922
147.00 1.28898
147.50 1.30737
148.00 1.32577
148.50 1.34418
149.00 1.36032
149.50 1.37531
150.00 1.39031
150.50 1.40531
151.00 1.42159
151.50 1.43881
152.00 1.45605
152.50 1.47271
153.00 1.48541
153.50 1.49814
154.00 1.51091
154.50 1.52370
155.00 1.53651
155.50 1.54906
156.00 1.56148
156.50 1.57349
157.00 1.58021
157.50 1.58698
158.00 1.59379
158.50 1.60064
159.00 1.60754
159.50 1.61451
160.00 1.62193
160.50 1.62654
161.00 1.63015
161.50 1.63383
162.00 1.63757
162.50 1.64139
163.00 1.64527
163.50 1.64837
164.00 1.65147
164.50 1.65464
165.00 1.65676
165.50 1.65821
166.00 1.65974
166.50 1.66135
167.00 1.66072
167.50 1.65989
168.00 1.65915
168.50 1.65857
169.00 1.65945
169.50 1.66043
170.00 1.65865
170.50 1.65659
171.00 1.65465
171.50 1.65281
172.00 1.65130
172.50 1.65024
173.00 1.64886
173.50 1.64646
174.00 1.64419
174.50 1.64204
175.00 1.64021
175.50 1.63862
176.00 1.63715
176.50 1.63580
177.00 1.63457
177.50 1.63358
178.00 1.63293
178.50 1.63241
179.00 1.63203
179.50 1.63178
180.00 1.63166
180.00 1.63166
180.50 1.63178
181.00 1.63203
181.50 1.63241
182.00 1.63293
182.50 1.63358
183.00 1.63457
183.50 1.63580
184.00 1.63715
184.50 1.63862
185.00 1.64021
185.50 1.64204
186.00 1.64419
186.50 1.64646
187.00 1.64886
187.50 1.65024
188.00 1.65130
188.50 1.65281
189.00 1.65465
189.50 1.65659
190.00 1.65865
190.50 1.66043
191.00 1.65945
191.50 1.65857
192.00 1.65915
192.50 1.65989
193.00 1.66072
193.50 1.66135
194.00 1.65974
194.50 1.65821
195.00 1.65676
195.50 1.65464
196.00 1.65147
196.50 1.64837
197.00 1.64527
197.50 1.64139
198.00 1.63757
198.50 1.63383
199.00 1.63015
199.50 1.62654
200.00 1.62193
200.50 1.61451
201.00 1.60754
201.50 1.60064
202.00 1.59379
202.50 1.58698
203.00 1.58021
203.50 1.57349
204.00 1.56148
204.50 1.54906
205.00 1.53651
205.50 1.52370
206.00 1.51091
206.50 1.49814
207.00 1.48541
207.50 1.47271
208.00 1.45605
208.50 1.43881
209.00 1.42159
209.50 1.40531
210.00 1.39031
210.50 1.37531
211.00 1.36032
211.50 1.34418
212.00 1.32577
212.50 1.30737
213.00 1.28898
213.50 1.26922
214.00 1.24875
214.50 1.22827
215.00 1.20779
215.50 1.18720
216.00 1.16659
216.50 1.14598
217.00 1.12372
217.50 1.10101
218.00 1.07831
218.50 1.05561
219.00 1.03336
219.50 1.01148
220.00 0.98968
220.50 0.96791
221.00 0.94616
221.50 0.92466
222.00 0.90377
222.50 0.88349
223.00 0.86323
223.50 0.84426
224.00 0.82554
224.50 0.80685
225.00 0.78757
225.50 0.76988
226.00 0.75298
226.50 0.73609
227.00 0.71942
227.50 0.70492
228.00 0.69041
228.50 0.67521
229.00 0.65829
229.50 0.64469
230.00 0.63108
230.50 0.61743
231.00 0.60376
231.50 0.58705
232.00 0.57140
232.50 0.55730
233.00 0.54312
233.50 0.52887
234.00 0.51497
234.50 0.50122
235.00 0.48740
235.50 0.47104
236.00 0.45272
236.50 0.43432
237.00 0.41574
237.50 0.39706
238.00 0.37830
238.50 0.35946
239.00 0.34055
239.50 0.32327
240.00 0.30617
240.50 0.28900
241.00 0.27079
241.50 0.25196
242.00 0.23309
242.50 0.21417
243.00 0.19718
243.50 0.18233
244.00 0.16743
244.50 0.15249
245.00 0.13853
245.50 0.12735
246.00 0.11745
246.50 0.10846
247.00 0.09947
247.50 0.09046
248.00 0.08145
248.50 0.07481
249.00 0.06953
249.50 0.06426
250.00 0.05899
250.50 0.05375
251.00 0.04887
251.50 0.04399
252.00 0.03911
252.50 0.03545
253.00 0.03306
253.50 0.03066
254.00 0.02826
254.50 0.02590
255.00 0.02354
255.50 0.02118
256.00 0.01882
256.50 0.01719
257.00 0.01591
257.50 0.01463
258.00 0.01335
258.50 0.01217
259.00 0.01117
259.50 0.01017
260.00 0.00917
260.50 0.00845
261.00 0.00780
261.50 0.00715
262.00 0.00655
262.50 0.00608
263.00 0.00561
263.50 0.00514
264.00 0.00473
264.50 0.00440
265.00 0.00407
265.50 0.00388
266.00 0.00369
266.50 0.00350
267.00 0.00331
267.50 0.00312
268.00 0.00302
268.50 0.00294
269.00 0.00285
269.50 0.00277
270.00 0.00269
270.00 0.00269
270.50 0.00277
271.00 0.00285
271.50 0.00294
272.00 0.00302
272.50 0.00312
273.00 0.00331
273.50 0.00350
274.00 0.00369
274.50 0.00388
275.00 0.00407
275.50 0.00440
276.00 0.00473
276.50 0.00514
277.00 0.00561
277.50 0.00608
278.00 0.00655
278.50 0.00715
279.00 0.00780
279.50 0.00845
280.00 0.00917
280.50 0.01017
281.00 0.01117
281.50 0.01217
282.00 0.01335
282.50 0.01463
283.00 0.01591
283.50 0.01719
284.00 0.01882
284.50 0.02118
285.00 0.02354
285.50 0.02590
286.00 0.02826
286.50 0.03066
287.00 0.03306
287.50 0.03545
288.00 0.03911
288.50 0.04399
289.00 0.04887
289.50 0.05375
290.00 0.05899
290.50 0.06426
291.00 0.06953
291.50 0.07481
292.00 0.08145
292.50 0.09046
293.00 0.09947
293.50 0.10846
294.00 0.11745
294.50 0.12735
295.00 0.13853
295.50 0.15249
296.00 0.16743
296.50 0.18233
297.00 0.19718
297.50 0.21417
298.00 0.23309
298.50 0.25196
299.00 0.27079
299.50 0.28900
300.00 0.30617
300.50 0.32327
301.00 0.34055
301.50 0.35946
302.00 0.37830
302.50 0.39706
303.00 0.41574
303.50 0.43432
304.00 0.45272
304.50 0.47104
305.00 0.48740
305.50 0.50122
306.00 0.51497
306.50 0.52887
307.00 0.54312
307.50 0.55730
308.00 0.57140
308.50 0.58705
309.00 0.60376
309.50 0.61743
310.00 0.63108
310.50 0.64469
311.00 0.65829
311.50 0.67521
312.00 0.69041
312.50 0.70492
313.00 0.71942
313.50 0.73609
314.00 0.75298
314.50 0.76988
315.00 0.78757
315.50 0.80685
316.00 0.82554
316.50 0.84426
317.00 0.86323
317.50 0.88349
318.00 0.90377
318.50 0.92466
319.00 0.94616
319.50 0.96791
320.00 0.98968
320.50 1.01148
321.00 1.03336
321.50 1.05561
322.00 1.07831
322.50 1.10101
323.00 1.12372
323.50 1.14598
324.00 1.16659
324.50 1.18720
325.00 1.20779
325.50 1.22827
326.00 1.24875
326.50 1.26922
327.00 1.28898
327.50 1.30737
328.00 1.32577
328.50 1.34418
329.00 1.36032
329.50 1.37531
330.00 1.39031
330.50 1.40531
331.00 1.42159
331.50 1.43881
332.00 1.45605
332.50 1.47271
333.00 1.48541
333.50 1.49814
334.00 1.51091
334.50 1.52370
335.00 1.53651
335.50 1.54906
336.00 1.56148
336.50 1.57349
337.00 1.58021
337.50 1.58698
338.00 1.59379
338.50 1.60064
339.00 1.60754
339.50 1.61451
340.00 1.62193
340.50 1.62654
341.00 1.63015
341.50 1.63383
342.00 1.63757
342.50 1.64139
343.00 1.64527
343.50 1.64837
344.00 1.65147
344.50 1.65464
345.00 1.65676
345.50 1.65821
346.00 1.65974
346.50 1.66135
347.00 1.66072
347.50 1.65989
348.00 1.65915
348.50 1.65857
349.00 1.65945
349.50 1.66043
350.00 1.65865
350.50 1.65659
351.00 1.65465
351.50 1.65281
352.00 1.65130
352.50 1.65024
353.00 1.64886
353.50 1.64646
354.00 1.64419
354.50 1.64204
355.00 1.64021
355.50 1.63862
356.00 1.63715
356.50 1.63580
357.00 1.63457
357.50 1.63358
358.00 1.63293
358.50 1.63241
359.00 1.63203
359.50 1.63178
360.00 1.63166
