phi[deg] B[T]
0.00 1.72672
0.50 1.72605
1.00 1.72551
1.50 1.72509
2.00 1.72476
2.50 1.72435
3.00 1.72408
3.50 1.72395
4.00 1.72396
4.50 1.72424
5.00 1.72465
5.50 1.72547
6.00 1.72660
6.50 1.72787
7.00 1.72890
7.50 1.72995
8.00 1.73114
8.50 1.73246
9.00 1.73515
9.50 1.73813
10.00 1.74020
10.50 1.74139
11.00 1.74193
11.50 1.74257
12.00 1.74331
12.50 1.74243
13.00 1.74094
13.50 1.73947
14.00 1.73744
14.50 1.73552
15.00 1.73371
15.50 1.73141
16.00 1.72911
16.50 1.72671
17.00 1.72324
17.50 1.71987
18.00 1.71660
18.50 1.71394
19.00 1.71279
19.50 1.71129
20.00 1.70951
20.50 1.70395
21.00 1.69842
21.50 1.69294
22.00 1.68735
22.50 1.68027
23.00 1.67325
23.50 1.66331
24.00 1.65076
24.50 1.63822
25.00 1.62570
25.50 1.60816
26.00 1.59057
26.50 1.57296
27.00 1.55522
27.50 1.53754
28.00 1.51990
28.50 1.50183
29.00 1.48325
29.50 1.46596
30.00 1.44839
30.50 1.43005
31.00 1.41177
31.50 1.39356
32.00 1.37565
32.50 1.35962
33.00 1.34365
33.50 1.32475
34.00 1.30468
34.50 1.28466
35.00 1.26467
35.50 1.24551
36.00 1.22786
36.50 1.20721
37.00 1.18516
37.50 1.16352
38.00 1.14190
38.50 1.12032
39.00 1.09861
39.50 1.07691
40.00 1.05510
40.50 1.03334
41.00 1.01145
41.50 0.99010
42.00 0.96898
42.50 0.94785
43.00 0.92679
43.50 0.90631
44.00 0.88587
44.50 0.86549
45.00 0.84518
45.50 0.82572
46.00 0.80627
46.50 0.78761
47.00 0.76947
47.50 0.75139
48.00 0.73456
48.50 0.71768
49.00 0.70192
49.50 0.68595
50.00 0.66997
50.50 0.65820
51.00 0.64716
51.50 0.63084
52.00 0.61253
52.50 0.59416
53.00 0.57592
53.50 0.56448
54.00 0.55292
54.50 0.53765
55.00 0.52061
55.50 0.50316
56.00 0.48073
56.50 0.45814
57.00 0.43539
57.50 0.40948
58.00 0.38334
58.50 0.35706
59.00 0.33141
59.50 0.30636
60.00 0.28037
60.50 0.25399
61.00 0.22750
61.50 0.20089
62.00 0.17825
62.50 0.16058
63.00 0.14248
63.50 0.12437
64.00 0.10623
64.50 0.09286
65.00 0.08268
65.50 0.07248
66.00 0.06240
66.50 0.05269
67.00 0.04703
67.50 0.04162
68.00 0.03621
68.50 0.03079
69.00 0.02642
69.50 0.02341
70.00 0.02041
70.50 0.01762
71.00 0.01495
71.50 0.01308
72.00 0.01167
72.50 0.01028
73.00 0.00892
73.50 0.00755
74.00 0.00645
74.50 0.00575
75.00 0.00504
75.50 0.00435
76.00 0.00382
76.50 0.00328
77.00 0.00285
77.50 0.00254
78.00 0.00224
78.50 0.00193
79.00 0.00168
79.50 0.00145
80.00 0.00129
80.50 0.00116
81.00 0.00103
81.50 0.00090
82.00 0.00078
82.50 0.00069
83.00 0.00063
83.50 0.00056
84.00 0.00050
84.50 0.00043
85.00 0.00038
85.50 0.00034
86.00 0.00031
86.50 0.00027
87.00 0.00024
87.50 0.00022
88.00 0.00019
88.50 0.00018
89.00 0.00017
89.50 0.00016
90.00 0.00015
90.00 0.00015
90.50 0.00016
91.00 0.00017
91.50 0.00018
92.00 0.00019
92.50 0.00022
93.00 0.00024
93.50 0.00027
94.00 0.00031
94.50 0.00034
95.00 0.00038
95.50 0.00043
96.00 0.00050
96.50 0.00056
97.00 0.00063
97.50 0.00069
98.00 0.00078
98.50 0.00090
99.00 0.00103
99.50 0.00116
100.00 0.00129
100.50 0.00145
101.00 0.00168
101.50 0.00193
102.00 0.00224
102.50 0.00254
103.00 0.00285
103.50 0.00328
104.00 0.00382
104.50 0.00435
105.00 0.00504
105.50 0.00575
106.00 0.00645
106.50 0.00755
107.00 0.00892
107.50 0.01028
108.00 0.01167
108.50 0.01308
109.00 0.01495
109.50 0.01762
110.00 0.02041
110.50 0.02341
111.00 0.02642
111.50 0.03079
112.00 0.03621
112.50 0.04162
113.00 0.04703
113.50 0.05269
114.00 0.06240
114.50 0.07248
115.00 0.08268
115.50 0.09286
116.00 0.10623
116.50 0.12437
117.00 0.14248
117.50 0.16058
118.00 0.17825
118.50 0.20089
119.00 0.22750
119.50 0.25399
120.00 0.28037
120.50 0.30636
121.00 0.33141
121.50 0.35706
122.00 0.38334
122.50 0.40948
123.00 0.43539
123.50 0.45814
124.00 0.48073
124.50 0.50316
125.00 0.52061
125.50 0.53765
126.00 0.55292
126.50 0.56448
127.00 0.57592
127.50 0.59416
128.00 0.61253
128.50 0.63084
129.00 0.64716
129.50 0.65820
130.00 0.66997
130.50 0.68595
131.00 0.70192
131.50 0.71768
132.00 0.73456
132.50 0.75139
133.00 0.76947
133.50 0.78761
134.00 0.80627
134.50 0.82572
135.00 0.84518
135.50 0.86549
136.00 0.88587
136.50 0.90631
137.00 0.92679
137.50 0.94785
138.00 0.96898
138.50 0.99010
139.00 1.01145
139.50 1.03334
140.00 1.05510
140.50 1.07691
141.00 1.09861
141.50 1.12032
142.00 1.14190
142.50 1.16352
143.00 1.18516
143.50 1.20721
144.00 1.22786
144.50 1.24551
145.00 1.26467
145.50 1.28466
146.00 1.30468
146.50 1.32475
147.00 1.34365
147.50 1.35962
148.00 1.37565
148.50 1.39356
149.00 1.41177
149.50 1.43005
150.00 1.44839
150.50 1.46596
151.00 1.48325
151.50 1.50183
152.00 1.51990
152.50 1.53754
153.00 1.55522
153.50 1.57296
154.00 1.59057
154.50 1.60816
155.00 1.62570
155.50 1.63822
156.00 1.65076
156.50 1.66331
157.00 1.67325
157.50 1.68027
158.00 1.68735
158.50 1.69294
159.00 1.69842
159.50 1.70395
160.00 1.70951
160.50 1.71129
161.00 1.71279
161.50 1.71394
162.00 1.71660
162.50 1.71987
163.00 1.72324
163.50 1.72671
164.00 1.72911
164.50 1.73141
165.00 1.73371
165.50 1.73552
166.00 1.73744
166.50 1.73947
167.00 1.74094
167.50 1.74243
168.00 1.74331
168.50 1.74257
169.00 1.74193
169.50 1.74139
170.00 1.74020
170.50 1.73813
171.00 1.73515
171.50 1.73246
172.00 1.73114
172.50 1.72995
173.00 1.72890
173.50 1.72787
174.00 1.72660
174.50 1.72547
175.00 1.72465
175.50 1.72424
176.00 1.72396
176.50 1.72395
177.00 1.72408
177.50 1.72435
178.00 1.72476
178.50 1.72509
179.00 1.72551
179.50 1.72605
180.00 1.72672
180.00 1.72672
180.50 1.72605
181.00 1.72551
181.50 1.72509
182.00 1.72476
182.50 1.72435
183.00 1.72408
183.50 1.72395
184.00 1.72396
184.50 1.72424
185.00 1.72465
185.50 1.72547
186.00 1.72660
186.50 1.72787
187.00 1.72890
187.50 1.72995
188.00 1.73114
188.50 1.73246
189.00 1.73515
189.50 1.73813
190.00 1.74020
190.50 1.74139
191.00 1.74193
191.50 1.74257
192.00 1.74331
192.50 1.74243
193.00 1.74094
193.50 1.73947
194.00 1.73744
194.50 1.73552
195.00 1.73371
195.50 1.73141
196.00 1.72911
196.50 1.72671
197.00 1.72324
197.50 1.71987
198.00 1.71660
198.50 1.71394
199.00 1.71279
199.50 1.71129
200.00 1.70951
200.50 1.70395
201.00 1.69842
201.50 1.69294
202.00 1.68735
202.50 1.68027
203.00 1.67325
203.50 1.66331
204.00 1.65076
204.50 1.63822
205.00 1.62570
205.50 1.60816
206.00 1.59057
206.50 1.57296
207.00 1.55522
207.50 1.53754
208.00 1.51990
208.50 1.50183
209.00 1.48325
209.50 1.46596
210.00 1.44839
210.50 1.43005
211.00 1.41177
211.50 1.39356
212.00 1.37565
212.50 1.35962
213.00 1.34365
213.50 1.32475
214.00 1.30468
214.50 1.28466
215.00 1.26467
215.50 1.24551
216.00 1.22786
216.50 1.20721
217.00 1.18516
217.50 1.16352
218.00 1.14190
218.50 1.12032
219.00 1.09861
219.50 1.07691
220.00 1.05510
220.50 1.03334
221.00 1.01145
221.50 0.99010
222.00 0.96898
222.50 0.94785
223.00 0.92679
223.50 0.90631
224.00 0.88587
224.50 0.86549
225.00 0.84518
225.50 0.82572
226.00 0.80627
226.50 0.78761
227.00 0.76947
227.50 0.75139
228.00 0.73456
228.50 0.71768
229.00 0.70192
229.50 0.68595
230.00 0.66997
230.50 0.65820
231.00 0.64716
231.50 0.63084
232.00 0.61253
232.50 0.59416
233.00 0.57592
233.50 0.56448
234.00 0.55292
234.50 0.53765
235.00 0.52061
235.50 0.50316
236.00 0.48073
236.50 0.45814
237.00 0.43539
237.50 0.40948
238.00 0.38334
238.50 0.35706
239.00 0.33141
239.50 0.30636
240.00 0.28037
240.50 0.25399
241.00 0.22750
241.50 0.20089
242.00 0.17825
242.50 0.16058
243.00 0.14248
243.50 0.12437
244.00 0.10623
244.50 0.09286
245.00 0.08268
245.50 0.07248
246.00 0.06240
246.50 0.05269
247.00 0.04703
247.50 0.04162
248.00 0.03621
248.50 0.03079
249.00 0.02642
249.50 0.02341
250.00 0.02041
250.50 0.01762
251.00 0.01495
251.50 0.01308
252.00 0.01167
252.50 0.01028
253.00 0.00892
253.50 0.00755
254.00 0.00645
254.50 0.00575
255.00 0.00504
255.50 0.00435
256.00 0.00382
256.50 0.00328
257.00 0.00285
257.50 0.00254
258.00 0.00224
258.50 0.00193
259.00 0.00168
259.50 0.00145
260.00 0.00129
260.50 0.00116
261.00 0.00103
261.50 0.00090
262.00 0.00078
262.50 0.00069
263.00 0.00063
263.50 0.00056
264.00 0.00050
264.50 0.00043
265.00 0.00038
265.50 0.00034
266.00 0.00031
266.50 0.00027
267.00 0.00024
267.50 0.00022
268.00 0.00019
268.50 0.00018
269.00 0.00017
269.50 0.00016
270.00 0.00015
270.00 0.00015
270.50 0.00016
271.00 0.00017
271.50 0.00018
272.00 0.00019
272.50 0.00022
273.00 0.00024
273.50 0.00027
274.00 0.00031
274.50 0.00034
275.00 0.00038
275.50 0.00043
276.00 0.00050
276.50 0.00056
277.00 0.00063
277.50 0.00069
278.00 0.00078
278.50 0.00090
279.00 0.00103
279.50 0.00116
280.00 0.00129
280.50 0.00145
281.00 0.00168
281.50 0.00193
282.00 0.00224
282.50 0.00254
283.00 0.00285
283.50 0.00328
284.00 0.00382
284.50 0.00435
285.00 0.00504
285.50 0.00575
286.00 0.00645
286.50 0.00755
287.00 0.00892
287.50 0.01028
288.00 0.01167
288.50 0.01308
289.00 0.01495
289.50 0.01762
290.00 0.02041
290.50 0.02341
291.00 0.02642
291.50 0.03079
292.00 0.03621
292.50 0.04162
293.00 0.04703
293.50 0.05269
294.00 0.06240
294.50 0.07248
295.00 0.08268
295.50 0.09286
296.00 0.10623
296.50 0.12437
297.00 0.14248
297.50 0.16058
298.00 0.17825
298.50 0.20089
299.00 0.22750
299.50 0.25399
300.00 0.28037
300.50 0.30636
301.00 0.33141
301.50 0.35706
302.00 0.38334
302.50 0.40948
303.00 0.43539
303.50 0.45814
304.00 0.48073
304.50 0.50316
305.00 0.52061
305.50 0.53765
306.00 0.55292
306.50 0.56448
307.00 0.57592
307.50 0.59416
308.00 0.61253
308.50 0.63084
309.00 0.64716
309.50 0.65820
310.00 0.66997
310.50 0.68595
311.00 0.70192
311.50 0.71768
312.00 0.73456
312.50 0.75139
313.00 0.76947
313.50 0.78761
314.00 0.80627
314.50 0.82572
315.00 0.84518
315.50 0.86549
316.00 0.88587
316.50 0.90631
317.00 0.92679
317.50 0.94785
318.00 0.96898
318.50 0.99010
319.00 1.01145
319.50 1.03334
320.00 1.05510
320.50 1.07691
321.00 1.09861
321.50 1.12032
322.00 1.14190
322.50 1.16352
323.00 1.18516
323.50 1.20721
324.00 1.22786
324.50 1.24551
325.00 1.26467
325.50 1.28466
326.00 1.30468
326.50 1.32475
327.00 1.34365
327.50 1.35962
328.00 1.37565
328.50 1.39356
329.00 1.41177
329.50 1.43005
330.00 1.44839
330.50 1.46596
331.00 1.48325
331.50 1.50183
332.00 1.51990
332.50 1.53754
333.00 1.55522
333.50 1.57296
334.00 1.59057
334.50 1.60816
335.00 1.62570
335.50 1.63822
336.00 1.65076
336.50 1.66331
337.00 1.67325
337.50 1.68027
338.00 1.68735
338.50 1.69294
339.00 1.69842
339.50 1.70395
340.00 1.70951
340.50 1.71129
341.00 1.71279
341.50 1.71394
342.00 1.71660
342.50 1.71987
343.00 1.72324
343.50 1.72671
344.00 1.72911
344.50 1.73141
345.00 1.73371
345.50 1.73552
346.00 1.73744
346.50 1.73947
347.00 1.74094
347.50 1.74243
348.00 1.74331
348.50 1.74257
349.00 1.74193
349.50 1.74139
350.00 1.74020
350.50 1.73813
351.00 1.73515
351.50 1.73246
352.00 1.73114
352.50 1.72995
353.00 1.72890
353.50 1.72787
354.00 1.72660
354.50 1.72547
355.00 1.72465
355.50 1.72424
356.00 1.72396
356.50 1.72395
357.00 1.72408
357.50 1.72435
358.00 1.72476
358.50 1.72509
359.00 1.72551
359.50 1.72605
360.00 1.72672
