phi[deg] B[T]
0.00 1.39755
0.50 1.39699
1.00 1.39653
1.50 1.39617
2.00 1.39581
2.50 1.39551
3.00 1.39534
3.50 1.39528
4.00 1.39507
4.50 1.39471
5.00 1.39446
5.50 1.39431
6.00 1.39428
6.50 1.39436
7.00 1.39468
7.50 1.39485
8.00 1.39506
8.50 1.39537
9.00 1.39578
9.50 1.39629
10.00 1.39690
10.50 1.39761
11.00 1.39866
11.50 1.39958
12.00 1.40002
12.50 1.40022
13.00 1.40051
13.50 1.40090
14.00 1.40138
14.50 1.40195
15.00 1.40283
15.50 1.40381
16.00 1.40354
16.50 1.40306
17.00 1.40267
17.50 1.40235
18.00 1.40212
18.50 1.40304
19.00 1.40457
19.50 1.40569
20.00 1.40413
20.50 1.40210
21.00 1.40010
21.50 1.39814
22.00 1.39621
22.50 1.39444
23.00 1.39273
23.50 1.38787
24.00 1.37991
24.50 1.37196
25.00 1.36403
25.50 1.35610
26.00 1.34826
26.50 1.34017
27.00 1.32854
27.50 1.31683
28.00 1.30509
28.50 1.29337
29.00 1.28166
29.50 1.26995
30.00 1.25793
30.50 1.24589
31.00 1.23332
31.50 1.21807
32.00 1.20282
32.50 1.18758
33.00 1.17338
33.50 1.15920
34.00 1.14285
34.50 1.12422
35.00 1.10559
35.50 1.08798
36.00 1.07233
36.50 1.05152
37.00 1.03088
37.50 1.01050
38.00 0.99009
38.50 0.96875
39.00 0.94596
39.50 0.92314
40.00 0.90006
40.50 0.87641
41.00 0.85241
41.50 0.82831
42.00 0.80420
42.50 0.77985
43.00 0.75572
43.50 0.73163
44.00 0.70735
44.50 0.68293
45.00 0.65852
45.50 0.63531
46.00 0.61220
46.50 0.58949
47.00 0.56773
47.50 0.54601
48.00 0.52614
48.50 0.50790
49.00 0.48967
49.50 0.47208
50.00 0.45562
50.50 0.44003
51.00 0.42665
51.50 0.41326
52.00 0.40267
52.50 0.39370
53.00 0.38458
53.50 0.37057
54.00 0.35651
54.50 0.34241
55.00 0.33065
55.50 0.32027
56.00 0.30984
56.50 0.29935
57.00 0.28454
57.50 0.26951
58.00 0.25441
58.50 0.23990
59.00 0.22695
59.50 0.21391
60.00 0.19640
60.50 0.17803
61.00 0.16311
61.50 0.15094
62.00 0.13874
62.50 0.12651
63.00 0.11425
63.50 0.10315
64.00 0.09203
64.50 0.08088
65.00 0.07200
65.50 0.06550
66.00 0.05900
66.50 0.05250
67.00 0.04714
67.50 0.04212
68.00 0.03710
68.50 0.03258
69.00 0.02981
69.50 0.02704
70.00 0.02427
70.50 0.02151
71.00 0.01907
71.50 0.01668
72.00 0.01503
72.50 0.01380
73.00 0.01257
73.50 0.01137
74.00 0.01018
74.50 0.00898
75.00 0.00784
75.50 0.00722
76.00 0.00659
76.50 0.00597
77.00 0.00538
77.50 0.00491
78.00 0.00443
78.50 0.00398
79.00 0.00369
79.50 0.00340
80.00 0.00311
80.50 0.00285
81.00 0.00264
81.50 0.00244
82.00 0.00225
82.50 0.00211
83.00 0.00197
83.50 0.00184
84.00 0.00175
84.50 0.00166
85.00 0.00157
85.50 0.00150
86.00 0.00143
86.50 0.00139
87.00 0.00136
87.50 0.00132
88.00 0.00128
88.50 0.00126
89.00 0.00125
89.50 0.00123
90.00 0.00121
90.00 0.00121
90.50 0.00123
91.00 0.00125
91.50 0.00126
92.00 0.00128
92.50 0.00132
93.00 0.00136
93.50 0.00139
94.00 0.00143
94.50 0.00150
95.00 0.00157
95.50 0.00166
96.00 0.00175
96.50 0.00184
97.00 0.00197
97.50 0.00211
98.00 0.00225
98.50 0.00244
99.00 0.00264
99.50 0.00285
100.00 0.00311
100.50 0.00340
101.00 0.00369
101.50 0.00398
102.00 0.00443
102.50 0.00491
103.00 0.00538
103.50 0.00597
104.00 0.00659
104.50 0.00722
105.00 0.00784
105.50 0.00898
106.00 0.01018
106.50 0.01137
107.00 0.01257
107.50 0.01380
108.00 0.01503
108.50 0.01668
109.00 0.01907
109.50 0.02151
110.00 0.02427
110.50 0.02704
111.00 0.02981
111.50 0.03258
112.00 0.03710
112.50 0.04212
113.00 0.04714
113.50 0.05250
114.00 0.05900
114.50 0.06550
115.00 0.07200
115.50 0.08088
116.00 0.09203
116.50 0.10315
117.00 0.11425
117.50 0.12651
118.00 0.13874
118.50 0.15094
119.00 0.16311
119.50 0.17803
120.00 0.19640
120.50 0.21391
121.00 0.22695
121.50 0.23990
122.00 0.25441
122.50 0.26951
123.00 0.28454
123.50 0.29935
124.00 0.30984
124.50 0.32027
125.00 0.33065
125.50 0.34241
126.00 0.35651
126.50 0.37057
127.00 0.38458
127.50 0.39370
128.00 0.40267
128.50 0.41326
129.00 0.42665
129.50 0.44003
130.00 0.45562
130.50 0.47208
131.00 0.48967
131.50 0.50790
132.00 0.52614
132.50 0.54601
133.00 0.56773
133.50 0.58949
134.00 0.61220
134.50 0.63531
135.00 0.65852
135.50 0.68293
136.00 0.70735
136.50 0.73163
137.00 0.75572
137.50 0.77985
138.00 0.80420
138.50 0.82831
139.00 0.85241
139.50 0.87641
140.00 0.90006
140.50 0.92314
141.00 0.94596
141.50 0.96875
142.00 0.99009
142.50 1.01050
143.00 1.03088
143.50 1.05152
144.00 1.07233
144.50 1.08798
145.00 1.10559
145.50 1.12422
146.00 1.14285
146.50 1.15920
147.00 1.17338
147.50 1.18758
148.00 1.20282
148.50 1.21807
149.00 1.23332
149.50 1.24589
150.00 1.25793
150.50 1.26995
151.00 1.28166
151.50 1.29337
152.00 1.30509
152.50 1.31683
153.00 1.32854
153.50 1.34017
154.00 1.34826
154.50 1.35610
155.00 1.36403
155.50 1.37196
156.00 1.37991
156.50 1.38787
157.00 1.39273
157.50 1.39444
158.00 1.39621
158.50 1.39814
159.00 1.40010
159.50 1.40210
160.00 1.40413
160.50 1.40569
161.00 1.40457
161.50 1.40304
162.00 1.40212
162.50 1.40235
163.00 1.40267
163.50 1.40306
164.00 1.40354
164.50 1.40381
165.00 1.40283
165.50 1.40195
166.00 1.40138
166.50 1.40090
167.00 1.40051
167.50 1.40022
168.00 1.40002
168.50 1.39958
169.00 1.39866
169.50 1.39761
170.00 1.39690
170.50 1.39629
171.00 1.39578
171.50 1.39537
172.00 1.39506
172.50 1.39485
173.00 1.39468
173.50 1.39436
174.00 1.39428
174.50 1.39431
175.00 1.39446
175.50 1.39471
176.00 1.39507
176.50 1.39528
177.00 1.39534
177.50 1.39551
178.00 1.39581
178.50 1.39617
179.00 1.39653
179.50 1.39699
180.00 1.39755
180.00 1.39755
180.50 1.39699
181.00 1.39653
181.50 1.39617
182.00 1.39581
182.50 1.39551
183.00 1.39534
183.50 1.39528
184.00 1.39507
184.50 1.39471
185.00 1.39446
185.50 1.39431
186.00 1.39428
186.50 1.39436
187.00 1.39468
187.50 1.39485
188.00 1.39506
188.50 1.39537
189.00 1.39578
189.50 1.39629
190.00 1.39690
190.50 1.39761
191.00 1.39866
191.50 1.39958
192.00 1.40002
192.50 1.40022
193.00 1.40051
193.50 1.40090
194.00 1.40138
194.50 1.40195
195.00 1.40283
195.50 1.40381
196.00 1.40354
196.50 1.40306
197.00 1.40267
197.50 1.40235
198.00 1.40212
198.50 1.40304
199.00 1.40457
199.50 1.40569
200.00 1.40413
200.50 1.40210
201.00 1.40010
201.50 1.39814
202.00 1.39621
202.50 1.39444
203.00 1.39273
203.50 1.38787
204.00 1.37991
204.50 1.37196
205.00 1.36403
205.50 1.35610
206.00 1.34826
206.50 1.34017
207.00 1.32854
207.50 1.31683
208.00 1.30509
208.50 1.29337
209.00 1.28166
209.50 1.26995
210.00 1.25793
210.50 1.24589
211.00 1.23332
211.50 1.21807
212.00 1.20282
212.50 1.18758
213.00 1.17338
213.50 1.15920
214.00 1.14285
214.50 1.12422
215.00 1.10559
215.50 1.08798
216.00 1.07233
216.50 1.05152
217.00 1.03088
217.50 1.01050
218.00 0.99009
218.50 0.96875
219.00 0.94596
219.50 0.92314
220.00 0.90006
220.50 0.87641
221.00 0.85241
221.50 0.82831
222.00 0.80420
222.50 0.77985
223.00 0.75572
223.50 0.73163
224.00 0.70735
224.50 0.68293
225.00 0.65852
225.50 0.63531
226.00 0.61220
226.50 0.58949
227.00 0.56773
227.50 0.54601
228.00 0.52614
228.50 0.50790
229.00 0.48967
229.50 0.47208
230.00 0.45562
230.50 0.44003
231.00 0.42665
231.50 0.41326
232.00 0.40267
232.50 0.39370
233.00 0.38458
233.50 0.37057
234.00 0.35651
234.50 0.34241
235.00 0.33065
235.50 0.32027
236.00 0.30984
236.50 0.29935
237.00 0.28454
237.50 0.26951
238.00 0.25441
238.50 0.23990
239.00 0.22695
239.50 0.21391
240.00 0.19640
240.50 0.17803
241.00 0.16311
241.50 0.15094
242.00 0.13874
242.50 0.12651
243.00 0.11425
243.50 0.10315
244.00 0.09203
244.50 0.08088
245.00 0.07200
245.50 0.06550
246.00 0.05900
246.50 0.05250
247.00 0.04714
247.50 0.04212
248.00 0.03710
248.50 0.03258
249.00 0.02981
249.50 0.02704
250.00 0.02427
250.50 0.02151
251.00 0.01907
251.50 0.01668
252.00 0.01503
252.50 0.01380
253.00 0.01257
253.50 0.01137
254.00 0.01018
254.50 0.00898
255.00 0.00784
255.50 0.00722
256.00 0.00659
256.50 0.00597
257.00 0.00538
257.50 0.00491
258.00 0.00443
258.50 0.00398
259.00 0.00369
259.50 0.00340
260.00 0.00311
260.50 0.00285
261.00 0.00264
261.50 0.00244
262.00 0.00225
262.50 0.00211
263.00 0.00197
263.50 0.00184
264.00 0.00175
264.50 0.00166
265.00 0.00157
265.50 0.00150
266.00 0.00143
266.50 0.00139
267.00 0.00136
267.50 0.00132
268.00 0.00128
268.50 0.00126
269.00 0.00125
269.50 0.00123
270.00 0.00121
270.00 0.00121
270.50 0.00123
271.00 0.00125
271.50 0.00126
272.00 0.00128
272.50 0.00132
273.00 0.00136
273.50 0.00139
274.00 0.00143
274.50 0.00150
275.00 0.00157
275.50 0.00166
276.00 0.00175
276.50 0.00184
277.00 0.00197
277.50 0.00211
278.00 0.00225
278.50 0.00244
279.00 0.00264
279.50 0.00285
280.00 0.00311
280.50 0.00340
281.00 0.00369
281.50 0.00398
282.00 0.00443
282.50 0.00491
283.00 0.00538
283.50 0.00597
284.00 0.00659
284.50 0.00722
285.00 0.00784
285.50 0.00898
286.00 0.01018
286.50 0.01137
287.00 0.01257
287.50 0.01380
288.00 0.01503
288.50 0.01668
289.00 0.01907
289.50 0.02151
290.00 0.02427
290.50 0.02704
291.00 0.02981
291.50 0.03258
292.00 0.03710
292.50 0.04212
293.00 0.04714
293.50 0.05250
294.00 0.05900
294.50 0.06550
295.00 0.07200
295.50 0.08088
296.00 0.09203
296.50 0.10315
297.00 0.11425
297.50 0.12651
298.00 0.13874
298.50 0.15094
299.00 0.16311
299.50 0.17803
300.00 0.19640
300.50 0.21391
301.00 0.22695
301.50 0.23990
302.00 0.25441
302.50 0.26951
303.00 0.28454
303.50 0.29935
304.00 0.30984
304.50 0.32027
305.00 0.33065
305.50 0.34241
306.00 0.35651
306.50 0.37057
307.00 0.38458
307.50 0.39370
308.00 0.40267
308.50 0.41326
309.00 0.42665
309.50 0.44003
310.00 0.45562
310.50 0.47208
311.00 0.48967
311.50 0.50790
312.00 0.52614
312.50 0.54601
313.00 0.56773
313.50 0.58949
314.00 0.61220
314.50 0.63531
315.00 0.65852
315.50 0.68293
316.00 0.70735
316.50 0.73163
317.00 0.75572
317.50 0.77985
318.00 0.80420
318.50 0.82831
319.00 0.85241
319.50 0.87641
320.00 0.90006
320.50 0.92314
321.00 0.94596
321.50 0.96875
322.00 0.99009
322.50 1.01050
323.00 1.03088
323.50 1.05152
324.00 1.07233
324.50 1.08798
325.00 1.10559
325.50 1.12422
326.00 1.14285
326.50 1.15920
327.00 1.17338
327.50 1.18758
328.00 1.20282
328.50 1.21807
329.00 1.23332
329.50 1.24589
330.00 1.25793
330.50 1.26995
331.00 1.28166
331.50 1.29337
332.00 1.30509
332.50 1.31683
333.00 1.32854
333.50 1.34017
334.00 1.34826
334.50 1.35610
335.00 1.36403
335.50 1.37196
336.00 1.37991
336.50 1.38787
337.00 1.39273
337.50 1.39444
338.00 1.39621
338.50 1.39814
339.00 1.40010
339.50 1.40210
340.00 1.40413
340.50 1.40569
341.00 1.40457
341.50 1.40304
342.00 1.40212
342.50 1.40235
343.00 1.40267
343.50 1.40306
344.00 1.40354
344.50 1.40381
345.00 1.40283
345.50 1.40195
346.00 1.40138
346.50 1.40090
347.00 1.40051
347.50 1.40022
348.00 1.40002
348.50 1.39958
349.00 1.39866
349.50 1.39761
350.00 1.39690
350.50 1.39629
351.00 1.39578
351.50 1.39537
352.00 1.39506
352.50 1.39485
353.00 1.39468
353.50 1.39436
354.00 1.39428
354.50 1.39431
355.00 1.39446
355.50 1.39471
356.00 1.39507
356.50 1.39528
357.00 1.39534
357.50 1.39551
358.00 1.39581
358.50 1.39617
359.00 1.39653
359.50 1.39699
360.00 1.39755
