phi[deg] B[T]
0.00 1.20608
0.50 1.20558
1.00 1.20518
1.50 1.20436
2.00 1.20264
2.50 1.20091
3.00 1.19933
3.50 1.19630
4.00 1.19325
4.50 1.19016
5.00 1.18765
5.50 1.18457
6.00 1.17844
6.50 1.17225
7.00 1.16739
7.50 1.16255
8.00 1.15250
8.50 1.14212
9.00 1.13167
9.50 1.12424
10.00 1.11290
10.50 1.09970
11.00 1.08635
11.50 1.07291
12.00 1.05958
12.50 1.04216
13.00 1.02095
13.50 0.99957
14.00 0.97803
14.50 0.95551
15.00 0.93187
15.50 0.90797
16.00 0.88383
16.50 0.85709
17.00 0.82730
17.50 0.79310
18.00 0.75866
18.50 0.72398
19.00 0.68905
19.50 0.65586
20.00 0.62275
20.50 0.58944
21.00 0.55592
21.50 0.51871
22.00 0.47658
22.50 0.44075
23.00 0.40855
23.50 0.37624
24.00 0.34343
24.50 0.31138
25.00 0.28859
25.50 0.26577
26.00 0.24292
26.50 0.22004
27.00 0.19708
27.50 0.17383
28.00 0.15726
28.50 0.14332
29.00 0.13104
29.50 0.11876
30.00 0.10650
30.50 0.09437
31.00 0.08460
31.50 0.07481
32.00 0.06842
32.50 0.06300
33.00 0.05758
33.50 0.05233
34.00 0.04715
34.50 0.04197
35.00 0.03679
35.50 0.03225
36.00 0.02959
36.50 0.02693
37.00 0.02426
37.50 0.02197
38.00 0.01993
38.50 0.01790
39.00 0.01587
39.50 0.01399
40.00 0.01268
40.50 0.01142
41.00 0.01045
41.50 0.00948
42.00 0.00851
42.50 0.00755
43.00 0.00679
43.50 0.00620
44.00 0.00562
44.50 0.00503
45.00 0.00445
45.50 0.00409
46.00 0.00373
46.50 0.00338
47.00 0.00302
47.50 0.00266
48.00 0.00245
48.50 0.00225
49.00 0.00205
49.50 0.00185
50.00 0.00164
50.50 0.00148
51.00 0.00134
51.50 0.00123
52.00 0.00114
52.50 0.00105
53.00 0.00096
53.50 0.00087
54.00 0.00078
54.50 0.00070
55.00 0.00066
55.50 0.00063
56.00 0.00059
56.50 0.00055
57.00 0.00052
57.50 0.00048
58.00 0.00044
58.50 0.00041
59.00 0.00040
59.50 0.00038
60.00 0.00036
60.50 0.00035
61.00 0.00033
61.50 0.00032
62.00 0.00030
62.50 0.00029
63.00 0.00028
63.50 0.00027
64.00 0.00026
64.50 0.00026
65.00 0.00025
65.50 0.00024
66.00 0.00023
66.50 0.00023
67.00 0.00022
67.50 0.00022
68.00 0.00021
68.50 0.00021
69.00 0.00020
69.50 0.00020
70.00 0.00019
70.50 0.00019
71.00 0.00018
71.50 0.00018
72.00 0.00017
72.50 0.00017
73.00 0.00016
73.50 0.00016
74.00 0.00015
74.50 0.00015
75.00 0.00014
75.50 0.00014
76.00 0.00013
76.50 0.00013
77.00 0.00012
77.50 0.00012
78.00 0.00012
78.50 0.00011
79.00 0.00011
79.50 0.00010
80.00 0.00010
80.50 0.00009
81.00 0.00009
81.50 0.00008
82.00 0.00008
82.50 0.00007
83.00 0.00007
83.50 0.00006
84.00 0.00006
84.50 0.00005
85.00 0.00005
85.50 0.00005
86.00 0.00004
86.50 0.00004
87.00 0.00003
87.50 0.00003
88.00 0.00002
88.50 0.00002
89.00 0.00002
89.50 0.00002
90.00 0.00001
90.00 0.00001
90.50 0.00002
91.00 0.00002
91.50 0.00002
92.00 0.00002
92.50 0.00003
93.00 0.00003
93.50 0.00004
94.00 0.00004
94.50 0.00005
95.00 0.00005
95.50 0.00005
96.00 0.00006
96.50 0.00006
97.00 0.00007
97.50 0.00007
98.00 0.00008
98.50 0.00008
99.00 0.00009
99.50 0.00009
100.00 0.00010
100.50 0.00010
101.00 0.00011
101.50 0.00011
102.00 0.00012
102.50 0.00012
103.00 0.00012
103.50 0.00013
104.00 0.00013
104.50 0.00014
105.00 0.00014
105.50 0.00015
106.00 0.00015
106.50 0.00016
107.00 0.00016
107.50 0.00017
108.00 0.00017
108.50 0.00018
109.00 0.00018
109.50 0.00019
110.00 0.00019
110.50 0.00020
111.00 0.00020
111.50 0.00021
112.00 0.00021
112.50 0.00022
113.00 0.00022
113.50 0.00023
114.00 0.00023
114.50 0.00024
115.00 0.00025
115.50 0.00026
116.00 0.00026
116.50 0.00027
117.00 0.00028
117.50 0.00029
118.00 0.00030
118.50 0.00032
119.00 0.00033
119.50 0.00035
120.00 0.00036
120.50 0.00038
121.00 0.00040
121.50 0.00041
122.00 0.00044
122.50 0.00048
123.00 0.00052
123.50 0.00055
124.00 0.00059
124.50 0.00063
125.00 0.00066
125.50 0.00070
126.00 0.00078
126.50 0.00087
127.00 0.00096
127.50 0.00105
128.00 0.00114
128.50 0.00123
129.00 0.00134
129.50 0.00148
130.00 0.00164
130.50 0.00185
131.00 0.00205
131.50 0.00225
132.00 0.00245
132.50 0.00266
133.00 0.00302
133.50 0.00338
134.00 0.00373
134.50 0.00409
135.00 0.00445
135.50 0.00503
136.00 0.00562
136.50 0.00620
137.00 0.00679
137.50 0.00755
138.00 0.00851
138.50 0.00948
139.00 0.01045
139.50 0.01142
140.00 0.01268
140.50 0.01399
141.00 0.01587
141.50 0.01790
142.00 0.01993
142.50 0.02197
143.00 0.02426
143.50 0.02693
144.00 0.02959
144.50 0.03225
145.00 0.03679
145.50 0.04197
146.00 0.04715
146.50 0.05233
147.00 0.05758
147.50 0.06300
148.00 0.06842
148.50 0.07481
149.00 0.08460
149.50 0.09437
150.00 0.10650
150.50 0.11876
151.00 0.13104
151.50 0.14332
152.00 0.15726
152.50 0.17383
153.00 0.19708
153.50 0.22004
154.00 0.24292
154.50 0.26577
155.00 0.28859
155.50 0.31138
156.00 0.34343
156.50 0.37624
157.00 0.40855
157.50 0.44075
158.00 0.47658
158.50 0.51871
159.00 0.55592
159.50 0.58944
160.00 0.62275
160.50 0.65586
161.00 0.68905
161.50 0.72398
162.00 0.75866
162.50 0.79310
163.00 0.82730
163.50 0.85709
164.00 0.88383
164.50 0.90797
165.00 0.93187
165.50 0.95551
166.00 0.97803
166.50 0.99957
167.00 1.02095
167.50 1.04216
168.00 1.05958
168.50 1.07291
169.00 1.08635
169.50 1.09970
170.00 1.11290
170.50 1.12424
171.00 1.13167
171.50 1.14212
172.00 1.15250
172.50 1.16255
173.00 1.16739
173.50 1.17225
174.00 1.17844
174.50 1.18457
175.00 1.18765
175.50 1.19016
176.00 1.19325
176.50 1.19630
177.00 1.19933
177.50 1.20091
178.00 1.20264
178.50 1.20436
179.00 1.20518
179.50 1.20558
180.00 1.20608
180.00 1.20608
180.50 1.20558
181.00 1.20518
181.50 1.20436
182.00 1.20264
182.50 1.20091
183.00 1.19933
183.50 1.19630
184.00 1.19325
184.50 1.19016
185.00 1.18765
185.50 1.18457
186.00 1.17844
186.50 1.17225
187.00 1.16739
187.50 1.16255
188.00 1.15250
188.50 1.14212
189.00 1.13167
189.50 1.12424
190.00 1.11290
190.50 1.09970
191.00 1.08635
191.50 1.07291
192.00 1.05958
192.50 1.04216
193.00 1.02095
193.50 0.99957
194.00 0.97803
194.50 0.95551
195.00 0.93187
195.50 0.90797
196.00 0.88383
196.50 0.85709
197.00 0.82730
197.50 0.79310
198.00 0.75866
198.50 0.72398
199.00 0.68905
199.50 0.65586
200.00 0.62275
200.50 0.58944
201.00 0.55592
201.50 0.51871
202.00 0.47658
202.50 0.44075
203.00 0.40855
203.50 0.37624
204.00 0.34343
204.50 0.31138
205.00 0.28859
205.50 0.26577
206.00 0.24292
206.50 0.22004
207.00 0.19708
207.50 0.17383
208.00 0.15726
208.50 0.14332
209.00 0.13104
209.50 0.11876
210.00 0.10650
210.50 0.09437
211.00 0.08460
211.50 0.07481
212.00 0.06842
212.50 0.06300
213.00 0.05758
213.50 0.05233
214.00 0.04715
214.50 0.04197
215.00 0.03679
215.50 0.03225
216.00 0.02959
216.50 0.02693
217.00 0.02426
217.50 0.02197
218.00 0.01993
218.50 0.01790
219.00 0.01587
219.50 0.01399
220.00 0.01268
220.50 0.01142
221.00 0.01045
221.50 0.00948
222.00 0.00851
222.50 0.00755
223.00 0.00679
223.50 0.00620
224.00 0.00562
224.50 0.00503
225.00 0.00445
225.50 0.00409
226.00 0.00373
226.50 0.00338
227.00 0.00302
227.50 0.00266
228.00 0.00245
228.50 0.00225
229.00 0.00205
229.50 0.00185
230.00 0.00164
230.50 0.00148
231.00 0.00134
231.50 0.00123
232.00 0.00114
232.50 0.00105
233.00 0.00096
233.50 0.00087
234.00 0.00078
234.50 0.00070
235.00 0.00066
235.50 0.00063
236.00 0.00059
236.50 0.00055
237.00 0.00052
237.50 0.00048
238.00 0.00044
238.50 0.00041
239.00 0.00040
239.50 0.00038
240.00 0.00036
240.50 0.00035
241.00 0.00033
241.50 0.00032
242.00 0.00030
242.50 0.00029
243.00 0.00028
243.50 0.00027
244.00 0.00026
244.50 0.00026
245.00 0.00025
245.50 0.00024
246.00 0.00023
246.50 0.00023
247.00 0.00022
247.50 0.00022
248.00 0.00021
248.50 0.00021
249.00 0.00020
249.50 0.00020
250.00 0.00019
250.50 0.00019
251.00 0.00018
251.50 0.00018
252.00 0.00017
252.50 0.00017
253.00 0.00016
253.50 0.00016
254.00 0.00015
254.50 0.00015
255.00 0.00014
255.50 0.00014
256.00 0.00013
256.50 0.00013
257.00 0.00012
257.50 0.00012
258.00 0.00012
258.50 0.00011
259.00 0.00011
259.50 0.00010
260.00 0.00010
260.50 0.00009
261.00 0.00009
261.50 0.00008
262.00 0.00008
262.50 0.00007
263.00 0.00007
263.50 0.00006
264.00 0.00006
264.50 0.00005
265.00 0.00005
265.50 0.00005
266.00 0.00004
266.50 0.00004
267.00 0.00003
267.50 0.00003
268.00 0.00002
268.50 0.00002
269.00 0.00002
269.50 0.00002
270.00 0.00001
270.00 0.00001
270.50 0.00002
271.00 0.00002
271.50 0.00002
272.00 0.00002
272.50 0.00003
273.00 0.00003
273.50 0.00004
274.00 0.00004
274.50 0.00005
275.00 0.00005
275.50 0.00005
276.00 0.00006
276.50 0.00006
277.00 0.00007
277.50 0.00007
278.00 0.00008
278.50 0.00008
279.00 0.00009
279.50 0.00009
280.00 0.00010
280.50 0.00010
281.00 0.00011
281.50 0.00011
282.00 0.00012
282.50 0.00012
283.00 0.00012
283.50 0.00013
284.00 0.00013
284.50 0.00014
285.00 0.00014
285.50 0.00015
286.00 0.00015
286.50 0.00016
287.00 0.00016
287.50 0.00017
288.00 0.00017
288.50 0.00018
289.00 0.00018
289.50 0.00019
290.00 0.00019
290.50 0.00020
291.00 0.00020
291.50 0.00021
292.00 0.00021
292.50 0.00022
293.00 0.00022
293.50 0.00023
294.00 0.00023
294.50 0.00024
295.00 0.00025
295.50 0.00026
296.00 0.00026
296.50 0.00027
297.00 0.00028
297.50 0.00029
298.00 0.00030
298.50 0.00032
299.00 0.00033
299.50 0.00035
300.00 0.00036
300.50 0.00038
301.00 0.00040
301.50 0.00041
302.00 0.00044
302.50 0.00048
303.00 0.00052
303.50 0.00055
304.00 0.00059
304.50 0.00063
305.00 0.00066
305.50 0.00070
306.00 0.00078
306.50 0.00087
307.00 0.00096
307.50 0.00105
308.00 0.00114
308.50 0.00123
309.00 0.00134
309.50 0.00148
310.00 0.00164
310.50 0.00185
311.00 0.00205
311.50 0.00225
312.00 0.00245
312.50 0.00266
313.00 0.00302
313.50 0.00338
314.00 0.00373
314.50 0.00409
315.00 0.00445
315.50 0.00503
316.00 0.00562
316.50 0.00620
317.00 0.00679
317.50 0.00755
318.00 0.00851
318.50 0.00948
319.00 0.01045
319.50 0.01142
320.00 0.01268
320.50 0.01399
321.00 0.01587
321.50 0.01790
322.00 0.01993
322.50 0.02197
323.00 0.02426
323.50 0.02693
324.00 0.02959
324.50 0.03225
325.00 0.03679
325.50 0.04197
326.00 0.04715
326.50 0.05233
327.00 0.05758
327.50 0.06300
328.00 0.06842
328.50 0.07481
329.00 0.08460
329.50 0.09437
330.00 0.10650
330.50 0.11876
331.00 0.13104
331.50 0.14332
332.00 0.15726
332.50 0.17383
333.00 0.19708
333.50 0.22004
334.00 0.24292
334.50 0.26577
335.00 0.28859
335.50 0.31138
336.00 0.34343
336.50 0.37624
337.00 0.40855
337.50 0.44075
338.00 0.47658
338.50 0.51871
339.00 0.55592
339.50 0.58944
340.00 0.62275
340.50 0.65586
341.00 0.68905
341.50 0.72398
342.00 0.75866
342.50 0.79310
343.00 0.82730
343.50 0.85709
344.00 0.88383
344.50 0.90797
345.00 0.93187
345.50 0.95551
346.00 0.97803
346.50 0.99957
347.00 1.02095
347.50 1.04216
348.00 1.05958
348.50 1.07291
349.00 1.08635
349.50 1.09970
350.00 1.11290
350.50 1.12424
351.00 1.13167
351.50 1.14212
352.00 1.15250
352.50 1.16255
353.00 1.16739
353.50 1.17225
354.00 1.17844
354.50 1.18457
355.00 1.18765
355.50 1.19016
356.00 1.19325
356.50 1.19630
357.00 1.19933
357.50 1.20091
358.00 1.20264
358.50 1.20436
359.00 1.20518
359.50 1.20558
360.00 1.20608
