phi[deg] B[T]
0.00 1.14305
0.50 1.14261
1.00 1.14225
1.50 1.14197
2.00 1.14176
2.50 1.14153
3.00 1.14127
3.50 1.14109
4.00 1.14099
4.50 1.14096
5.00 1.14016
5.50 1.13919
6.00 1.13829
6.50 1.13747
7.00 1.13673
7.50 1.13607
8.00 1.13548
8.50 1.13502
9.00 1.13362
9.50 1.13226
10.00 1.13097
10.50 1.12974
11.00 1.12858
11.50 1.12748
12.00 1.12645
12.50 1.12549
13.00 1.12460
13.50 1.12379
14.00 1.12234
14.50 1.12035
15.00 1.11842
15.50 1.11655
16.00 1.11473
16.50 1.11297
17.00 1.11128
17.50 1.10963
18.00 1.10816
18.50 1.10715
19.00 1.10531
19.50 1.10206
20.00 1.09885
20.50 1.09567
21.00 1.09252
21.50 1.08940
22.00 1.08633
22.50 1.08348
23.00 1.08067
23.50 1.07493
24.00 1.06765
24.50 1.06039
25.00 1.05314
25.50 1.04591
26.00 1.03869
26.50 1.03188
27.00 1.02584
27.50 1.01614
28.00 1.00533
28.50 0.99431
29.00 0.98329
29.50 0.97229
30.00 0.96128
30.50 0.95029
31.00 0.93931
31.50 0.92834
32.00 0.91737
32.50 0.90566
33.00 0.89247
33.50 0.87976
34.00 0.86712
34.50 0.85471
35.00 0.84232
35.50 0.82998
36.00 0.81767
36.50 0.80541
37.00 0.79388
37.50 0.78239
38.00 0.77094
38.50 0.75954
39.00 0.74812
39.50 0.73654
40.00 0.72618
40.50 0.71585
41.00 0.70554
41.50 0.69510
42.00 0.68401
42.50 0.67423
43.00 0.66446
43.50 0.65442
44.00 0.64401
44.50 0.63361
45.00 0.62312
45.50 0.61254
46.00 0.60214
46.50 0.59172
47.00 0.58112
47.50 0.57044
48.00 0.55976
48.50 0.54785
49.00 0.53735
49.50 0.52681
50.00 0.51624
50.50 0.50308
51.00 0.48917
51.50 0.47521
52.00 0.46364
52.50 0.45276
53.00 0.44180
53.50 0.42918
54.00 0.41628
54.50 0.40158
55.00 0.38591
55.50 0.37014
56.00 0.35429
56.50 0.33840
57.00 0.32622
57.50 0.31194
58.00 0.29263
58.50 0.27633
59.00 0.26079
59.50 0.24516
60.00 0.22945
60.50 0.21367
61.00 0.19780
61.50 0.18186
62.00 0.16554
62.50 0.14711
63.00 0.13439
63.50 0.12461
64.00 0.11482
64.50 0.10503
65.00 0.09523
65.50 0.08542
66.00 0.07562
66.50 0.06648
67.00 0.06081
67.50 0.05587
68.00 0.05092
68.50 0.04596
69.00 0.04101
69.50 0.03606
70.00 0.03293
70.50 0.03030
71.00 0.02767
71.50 0.02503
72.00 0.02240
72.50 0.01977
73.00 0.01750
73.50 0.01620
74.00 0.01490
74.50 0.01359
75.00 0.01228
75.50 0.01096
76.00 0.00965
76.50 0.00834
77.00 0.00769
77.50 0.00710
78.00 0.00651
78.50 0.00591
79.00 0.00531
79.50 0.00471
80.00 0.00410
80.50 0.00372
81.00 0.00342
81.50 0.00315
82.00 0.00287
82.50 0.00260
83.00 0.00233
83.50 0.00214
84.00 0.00197
84.50 0.00179
85.00 0.00166
85.50 0.00153
86.00 0.00144
86.50 0.00137
87.00 0.00130
87.50 0.00122
88.00 0.00116
88.50 0.00113
89.00 0.00110
89.50 0.00107
90.00 0.00103
90.00 0.00103
90.50 0.00107
91.00 0.00110
91.50 0.00113
92.00 0.00116
92.50 0.00122
93.00 0.00130
93.50 0.00137
94.00 0.00144
94.50 0.00153
95.00 0.00166
95.50 0.00179
96.00 0.00197
96.50 0.00214
97.00 0.00233
97.50 0.00260
98.00 0.00287
98.50 0.00315
99.00 0.00342
99.50 0.00372
100.00 0.00410
100.50 0.00471
101.00 0.00531
101.50 0.00591
102.00 0.00651
102.50 0.00710
103.00 0.00769
103.50 0.00834
104.00 0.00965
104.50 0.01096
105.00 0.01228
105.50 0.01359
106.00 0.01490
106.50 0.01620
107.00 0.01750
107.50 0.01977
108.00 0.02240
108.50 0.02503
109.00 0.02767
109.50 0.03030
110.00 0.03293
110.50 0.03606
111.00 0.04101
111.50 0.04596
112.00 0.05092
112.50 0.05587
113.00 0.06081
113.50 0.06648
114.00 0.07562
114.50 0.08542
115.00 0.09523
115.50 0.10503
116.00 0.11482
116.50 0.12461
117.00 0.13439
117.50 0.14711
118.00 0.16554
118.50 0.18186
119.00 0.19780
119.50 0.21367
120.00 0.22945
120.50 0.24516
121.00 0.26079
121.50 0.27633
122.00 0.29263
122.50 0.31194
123.00 0.32622
123.50 0.33840
124.00 0.35429
124.50 0.37014
125.00 0.38591
125.50 0.40158
126.00 0.41628
126.50 0.42918
127.00 0.44180
127.50 0.45276
128.00 0.46364
128.50 0.47521
129.00 0.48917
129.50 0.50308
130.00 0.51624
130.50 0.52681
131.00 0.53735
131.50 0.54785
132.00 0.55976
132.50 0.57044
133.00 0.58112
133.50 0.59172
134.00 0.60214
134.50 0.61254
135.00 0.62312
135.50 0.63361
136.00 0.64401
136.50 0.65442
137.00 0.66446
137.50 0.67423
138.00 0.68401
138.50 0.69510
139.00 0.70554
139.50 0.71585
140.00 0.72618
140.50 0.73654
141.00 0.74812
141.50 0.75954
142.00 0.77094
142.50 0.78239
143.00 0.79388
143.50 0.80541
144.00 0.81767
144.50 0.82998
145.00 0.84232
145.50 0.85471
146.00 0.86712
146.50 0.87976
147.00 0.89247
147.50 0.90566
148.00 0.91737
148.50 0.92834
149.00 0.93931
149.50 0.95029
150.00 0.96128
150.50 0.97229
151.00 0.98329
151.50 0.99431
152.00 1.00533
152.50 1.01614
153.00 1.02584
153.50 1.03188
154.00 1.03869
154.50 1.04591
155.00 1.05314
155.50 1.06039
156.00 1.06765
156.50 1.07493
157.00 1.08067
157.50 1.08348
158.00 1.08633
158.50 1.08940
159.00 1.09252
159.50 1.09567
160.00 1.09885
160.50 1.10206
161.00 1.10531
161.50 1.10715
162.00 1.10816
162.50 1.10963
163.00 1.11128
163.50 1.11297
164.00 1.11473
164.50 1.11655
165.00 1.11842
165.50 1.12035
166.00 1.12234
166.50 1.12379
167.00 1.12460
167.50 1.12549
168.00 1.12645
168.50 1.12748
169.00 1.12858
169.50 1.12974
170.00 1.13097
170.50 1.13226
171.00 1.13362
171.50 1.13502
172.00 1.13548
172.50 1.13607
173.00 1.13673
173.50 1.13747
174.00 1.13829
174.50 1.13919
175.00 1.14016
175.50 1.14096
176.00 1.14099
176.50 1.14109
177.00 1.14127
177.50 1.14153
178.00 1.14176
178.50 1.14197
179.00 1.14225
179.50 1.14261
180.00 1.14305
180.00 1.14305
180.50 1.14261
181.00 1.14225
181.50 1.14197
182.00 1.14176
182.50 1.14153
183.00 1.14127
183.50 1.14109
184.00 1.14099
184.50 1.14096
185.00 1.14016
185.50 1.13919
186.00 1.13829
186.50 1.13747
187.00 1.13673
187.50 1.13607
188.00 1.13548
188.50 1.13502
189.00 1.13362
189.50 1.13226
190.00 1.13097
190.50 1.12974
191.00 1.12858
191.50 1.12748
192.00 1.12645
192.50 1.12549
193.00 1.12460
193.50 1.12379
194.00 1.12234
194.50 1.12035
195.00 1.11842
195.50 1.11655
196.00 1.11473
196.50 1.11297
197.00 1.11128
197.50 1.10963
198.00 1.10816
198.50 1.10715
199.00 1.10531
199.50 1.10206
200.00 1.09885
200.50 1.09567
201.00 1.09252
201.50 1.08940
202.00 1.08633
202.50 1.08348
203.00 1.08067
203.50 1.07493
204.00 1.06765
204.50 1.06039
205.00 1.05314
205.50 1.04591
206.00 1.03869
206.50 1.03188
207.00 1.02584
207.50 1.01614
208.00 1.00533
208.50 0.99431
209.00 0.98329
209.50 0.97229
210.00 0.96128
210.50 0.95029
211.00 0.93931
211.50 0.92834
212.00 0.91737
212.50 0.90566
213.00 0.89247
213.50 0.87976
214.00 0.86712
214.50 0.85471
215.00 0.84232
215.50 0.82998
216.00 0.81767
216.50 0.80541
217.00 0.79388
217.50 0.78239
218.00 0.77094
218.50 0.75954
219.00 0.74812
219.50 0.73654
220.00 0.72618
220.50 0.71585
221.00 0.70554
221.50 0.69510
222.00 0.68401
222.50 0.67423
223.00 0.66446
223.50 0.65442
224.00 0.64401
224.50 0.63361
225.00 0.62312
225.50 0.61254
226.00 0.60214
226.50 0.59172
227.00 0.58112
227.50 0.57044
228.00 0.55976
228.50 0.54785
229.00 0.53735
229.50 0.52681
230.00 0.51624
230.50 0.50308
231.00 0.48917
231.50 0.47521
232.00 0.46364
232.50 0.45276
233.00 0.44180
233.50 0.42918
234.00 0.41628
234.50 0.40158
235.00 0.38591
235.50 0.37014
236.00 0.35429
236.50 0.33840
237.00 0.32622
237.50 0.31194
238.00 0.29263
238.50 0.27633
239.00 0.26079
239.50 0.24516
240.00 0.22945
240.50 0.21367
241.00 0.19780
241.50 0.18186
242.00 0.16554
242.50 0.14711
243.00 0.13439
243.50 0.12461
244.00 0.11482
244.50 0.10503
245.00 0.09523
245.50 0.08542
246.00 0.07562
246.50 0.06648
247.00 0.06081
247.50 0.05587
248.00 0.05092
248.50 0.04596
249.00 0.04101
249.50 0.03606
250.00 0.03293
250.50 0.03030
251.00 0.02767
251.50 0.02503
252.00 0.02240
252.50 0.01977
253.00 0.01750
253.50 0.01620
254.00 0.01490
254.50 0.01359
255.00 0.01228
255.50 0.01096
256.00 0.00965
256.50 0.00834
257.00 0.00769
257.50 0.00710
258.00 0.00651
258.50 0.00591
259.00 0.00531
259.50 0.00471
260.00 0.00410
260.50 0.00372
261.00 0.00342
261.50 0.00315
262.00 0.00287
262.50 0.00260
263.00 0.00233
263.50 0.00214
264.00 0.00197
264.50 0.00179
265.00 0.00166
265.50 0.00153
266.00 0.00144
266.50 0.00137
267.00 0.00130
267.50 0.00122
268.00 0.00116
268.50 0.00113
269.00 0.00110
269.50 0.00107
270.00 0.00103
270.00 0.00103
270.50 0.00107
271.00 0.00110
271.50 0.00113
272.00 0.00116
272.50 0.00122
273.00 0.00130
273.50 0.00137
274.00 0.00144
274.50 0.00153
275.00 0.00166
275.50 0.00179
276.00 0.00197
276.50 0.00214
277.00 0.00233
277.50 0.00260
278.00 0.00287
278.50 0.00315
279.00 0.00342
279.50 0.00372
280.00 0.00410
280.50 0.00471
281.00 0.00531
281.50 0.00591
282.00 0.00651
282.50 0.00710
283.00 0.00769
283.50 0.00834
284.00 0.00965
284.50 0.01096
285.00 0.01228
285.50 0.01359
286.00 0.01490
286.50 0.01620
287.00 0.01750
287.50 0.01977
288.00 0.02240
288.50 0.02503
289.00 0.02767
289.50 0.03030
290.00 0.03293
290.50 0.03606
291.00 0.04101
291.50 0.04596
292.00 0.05092
292.50 0.05587
293.00 0.06081
293.50 0.06648
294.00 0.07562
294.50 0.08542
295.00 0.09523
295.50 0.10503
296.00 0.11482
296.50 0.12461
297.00 0.13439
297.50 0.14711
298.00 0.16554
298.50 0.18186
299.00 0.19780
299.50 0.21367
300.00 0.22945
300.50 0.24516
301.00 0.26079
301.50 0.27633
302.00 0.29263
302.50 0.31194
303.00 0.32622
303.50 0.33840
304.00 0.35429
304.50 0.37014
305.00 0.38591
305.50 0.40158
306.00 0.41628
306.50 0.42918
307.00 0.44180
307.50 0.45276
308.00 0.46364
308.50 0.47521
309.00 0.48917
309.50 0.50308
310.00 0.51624
310.50 0.52681
311.00 0.53735
311.50 0.54785
312.00 0.55976
312.50 0.57044
313.00 0.58112
313.50 0.59172
314.00 0.60214
314.50 0.61254
315.00 0.62312
315.50 0.63361
316.00 0.64401
316.50 0.65442
317.00 0.66446
317.50 0.67423
318.00 0.68401
318.50 0.69510
319.00 0.70554
319.50 0.71585
320.00 0.72618
320.50 0.73654
321.00 0.74812
321.50 0.75954
322.00 0.77094
322.50 0.78239
323.00 0.79388
323.50 0.80541
324.00 0.81767
324.50 0.82998
325.00 0.84232
325.50 0.85471
326.00 0.86712
326.50 0.87976
327.00 0.89247
327.50 0.90566
328.00 0.91737
328.50 0.92834
329.00 0.93931
329.50 0.95029
330.00 0.96128
330.50 0.97229
331.00 0.98329
331.50 0.99431
332.00 1.00533
332.50 1.01614
333.00 1.02584
333.50 1.03188
334.00 1.03869
334.50 1.04591
335.00 1.05314
335.50 1.06039
336.00 1.06765
336.50 1.07493
337.00 1.08067
337.50 1.08348
338.00 1.08633
338.50 1.08940
339.00 1.09252
339.50 1.09567
340.00 1.09885
340.50 1.10206
341.00 1.10531
341.50 1.10715
342.00 1.10816
342.50 1.10963
343.00 1.11128
343.50 1.11297
344.00 1.11473
344.50 1.11655
345.00 1.11842
345.50 1.12035
346.00 1.12234
346.50 1.12379
347.00 1.12460
347.50 1.12549
348.00 1.12645
348.50 1.12748
349.00 1.12858
349.50 1.12974
350.00 1.13097
350.50 1.13226
351.00 1.13362
351.50 1.13502
352.00 1.13548
352.50 1.13607
353.00 1.13673
353.50 1.13747
354.00 1.13829
354.50 1.13919
355.00 1.14016
355.50 1.14096
356.00 1.14099
356.50 1.14109
357.00 1.14127
357.50 1.14153
358.00 1.14176
358.50 1.14197
359.00 1.14225
359.50 1.14261
360.00 1.14305
