phi[deg] B[T]
0.00 2.03089
0.50 2.03006
1.00 2.02937
1.50 2.02881
2.00 2.02838
2.50 2.02832
3.00 2.02746
3.50 2.02712
4.00 2.02691
4.50 2.02682
5.00 2.02687
5.50 2.02705
6.00 2.02670
6.50 2.02647
7.00 2.02637
7.50 2.02544
8.00 2.02455
8.50 2.02390
9.00 2.02353
9.50 2.02329
10.00 2.02317
10.50 2.02100
11.00 2.01823
11.50 2.01609
12.00 2.01436
12.50 2.01274
13.00 2.01123
13.50 2.00962
14.00 2.00684
14.50 2.00329
15.00 1.99753
15.50 1.99248
16.00 1.98920
16.50 1.98601
17.00 1.98290
17.50 1.97881
18.00 1.97155
18.50 1.96436
19.00 1.95751
19.50 1.95306
20.00 1.94866
20.50 1.94267
21.00 1.93420
21.50 1.92578
22.00 1.91616
22.50 1.90502
23.00 1.89392
23.50 1.88283
24.00 1.86911
24.50 1.85479
25.00 1.84050
25.50 1.82610
26.00 1.80889
26.50 1.79238
27.00 1.77610
27.50 1.75984
28.00 1.74253
28.50 1.72390
29.00 1.70518
29.50 1.68578
30.00 1.66639
30.50 1.64703
31.00 1.62555
31.50 1.60294
32.00 1.58296
32.50 1.56297
33.00 1.54297
33.50 1.52150
34.00 1.49811
34.50 1.47471
35.00 1.45071
35.50 1.42608
36.00 1.40144
36.50 1.37679
37.00 1.35160
37.50 1.32518
38.00 1.29979
38.50 1.27438
39.00 1.24896
39.50 1.22312
40.00 1.19661
40.50 1.17146
41.00 1.14628
41.50 1.12104
42.00 1.09454
42.50 1.06928
43.00 1.04487
43.50 1.02023
44.00 0.99507
44.50 0.96987
45.00 0.94456
45.50 0.91966
46.00 0.89538
46.50 0.87104
47.00 0.84684
47.50 0.82272
48.00 0.79794
48.50 0.77264
49.00 0.74873
49.50 0.72499
50.00 0.70115
50.50 0.67714
51.00 0.65458
51.50 0.63196
52.00 0.60929
52.50 0.58651
53.00 0.56268
53.50 0.54043
54.00 0.51886
54.50 0.49722
55.00 0.47552
55.50 0.45375
56.00 0.43180
56.50 0.41199
57.00 0.39211
57.50 0.37216
58.00 0.35225
58.50 0.33376
59.00 0.31521
59.50 0.29621
60.00 0.27715
60.50 0.25805
61.00 0.23890
61.50 0.22011
62.00 0.20646
62.50 0.19300
63.00 0.17949
63.50 0.16596
64.00 0.15239
64.50 0.13852
65.00 0.12937
65.50 0.12038
66.00 0.11139
66.50 0.10235
67.00 0.09320
67.50 0.08405
68.00 0.07675
68.50 0.07175
69.00 0.06675
69.50 0.06174
70.00 0.05665
70.50 0.05154
71.00 0.04644
71.50 0.04165
72.00 0.03868
72.50 0.03590
73.00 0.03313
73.50 0.03036
74.00 0.02759
74.50 0.02483
75.00 0.02285
75.50 0.02132
76.00 0.01979
76.50 0.01826
77.00 0.01674
77.50 0.01515
78.00 0.01357
78.50 0.01254
79.00 0.01172
79.50 0.01091
80.00 0.01009
80.50 0.00927
81.00 0.00845
81.50 0.00766
82.00 0.00709
82.50 0.00662
83.00 0.00617
83.50 0.00573
84.00 0.00529
84.50 0.00489
85.00 0.00466
85.50 0.00442
86.00 0.00419
86.50 0.00395
87.00 0.00370
87.50 0.00361
88.00 0.00352
88.50 0.00342
89.00 0.00332
89.50 0.00322
90.00 0.00313
90.00 0.00313
90.50 0.00322
91.00 0.00332
91.50 0.00342
92.00 0.00352
92.50 0.00361
93.00 0.00370
93.50 0.00395
94.00 0.00419
94.50 0.00442
95.00 0.00466
95.50 0.00489
96.00 0.00529
96.50 0.00573
97.00 0.00617
97.50 0.00662
98.00 0.00709
98.50 0.00766
99.00 0.00845
99.50 0.00927
100.00 0.01009
100.50 0.01091
101.00 0.01172
101.50 0.01254
102.00 0.01357
102.50 0.01515
103.00 0.01674
103.50 0.01826
104.00 0.01979
104.50 0.02132
105.00 0.02285
105.50 0.02483
106.00 0.02759
106.50 0.03036
107.00 0.03313
107.50 0.03590
108.00 0.03868
108.50 0.04165
109.00 0.04644
109.50 0.05154
110.00 0.05665
110.50 0.06174
111.00 0.06675
111.50 0.07175
112.00 0.07675
112.50 0.08405
113.00 0.09320
113.50 0.10235
114.00 0.11139
114.50 0.12038
115.00 0.12937
115.50 0.13852
116.00 0.15239
116.50 0.16596
117.00 0.17949
117.50 0.19300
118.00 0.20646
118.50 0.22011
119.00 0.23890
119.50 0.25805
120.00 0.27715
120.50 0.29621
121.00 0.31521
121.50 0.33376
122.00 0.35225
122.50 0.37216
123.00 0.39211
123.50 0.41199
124.00 0.43180
124.50 0.45375
125.00 0.47552
125.50 0.49722
126.00 0.51886
126.50 0.54043
127.00 0.56268
127.50 0.58651
128.00 0.60929
128.50 0.63196
129.00 0.65458
129.50 0.67714
130.00 0.70115
130.50 0.72499
131.00 0.74873
131.50 0.77264
132.00 0.79794
132.50 0.82272
133.00 0.84684
133.50 0.87104
134.00 0.89538
134.50 0.91966
135.00 0.94456
135.50 0.96987
136.00 0.99507
136.50 1.02023
137.00 1.04487
137.50 1.06928
138.00 1.09454
138.50 1.12104
139.00 1.14628
139.50 1.17146
140.00 1.19661
140.50 1.22312
141.00 1.24896
141.50 1.27438
142.00 1.29979
142.50 1.32518
143.00 1.35160
143.50 1.37679
144.00 1.40144
144.50 1.42608
145.00 1.45071
145.50 1.47471
146.00 1.49811
146.50 1.52150
147.00 1.54297
147.50 1.56297
148.00 1.58296
148.50 1.60294
149.00 1.62555
149.50 1.64703
150.00 1.66639
150.50 1.68578
151.00 1.70518
151.50 1.72390
152.00 1.74253
152.50 1.75984
153.00 1.77610
153.50 1.79238
154.00 1.80889
154.50 1.82610
155.00 1.84050
155.50 1.85479
156.00 1.86911
156.50 1.88283
157.00 1.89392
157.50 1.90502
158.00 1.91616
158.50 1.92578
159.00 1.93420
159.50 1.94267
160.00 1.94866
160.50 1.95306
161.00 1.95751
161.50 1.96436
162.00 1.97155
162.50 1.97881
163.00 1.98290
163.50 1.98601
164.00 1.98920
164.50 1.99248
165.00 1.99753
165.50 2.00329
166.00 2.00684
166.50 2.00962
167.00 2.01123
167.50 2.01274
168.00 2.01436
168.50 2.01609
169.00 2.01823
169.50 2.02100
170.00 2.02317
170.50 2.02329
171.00 2.02353
171.50 2.02390
172.00 2.02455
172.50 2.02544
173.00 2.02637
173.50 2.02647
174.00 2.02670
174.50 2.02705
175.00 2.02687
175.50 2.02682
176.00 2.02691
176.50 2.02712
177.00 2.02746
177.50 2.02832
178.00 2.02838
178.50 2.02881
179.00 2.02937
179.50 2.03006
180.00 2.03089
180.00 2.03089
180.50 2.03006
181.00 2.02937
181.50 2.02881
182.00 2.02838
182.50 2.02832
183.00 2.02746
183.50 2.02712
184.00 2.02691
184.50 2.02682
185.00 2.02687
185.50 2.02705
186.00 2.02670
186.50 2.02647
187.00 2.02637
187.50 2.02544
188.00 2.02455
188.50 2.02390
189.00 2.02353
189.50 2.02329
190.00 2.02317
190.50 2.02100
191.00 2.01823
191.50 2.01609
192.00 2.01436
192.50 2.01274
193.00 2.01123
193.50 2.00962
194.00 2.00684
194.50 2.00329
195.00 1.99753
195.50 1.99248
196.00 1.98920
196.50 1.98601
197.00 1.98290
197.50 1.97881
198.00 1.97155
198.50 1.96436
199.00 1.95751
199.50 1.95306
200.00 1.94866
200.50 1.94267
201.00 1.93420
201.50 1.92578
202.00 1.91616
202.50 1.90502
203.00 1.89392
203.50 1.88283
204.00 1.86911
204.50 1.85479
205.00 1.84050
205.50 1.82610
206.00 1.80889
206.50 1.79238
207.00 1.77610
207.50 1.75984
208.00 1.74253
208.50 1.72390
209.00 1.70518
209.50 1.68578
210.00 1.66639
210.50 1.64703
211.00 1.62555
211.50 1.60294
212.00 1.58296
212.50 1.56297
213.00 1.54297
213.50 1.52150
214.00 1.49811
214.50 1.47471
215.00 1.45071
215.50 1.42608
216.00 1.40144
216.50 1.37679
217.00 1.35160
217.50 1.32518
218.00 1.29979
218.50 1.27438
219.00 1.24896
219.50 1.22312
220.00 1.19661
220.50 1.17146
221.00 1.14628
221.50 1.12104
222.00 1.09454
222.50 1.06928
223.00 1.04487
223.50 1.02023
224.00 0.99507
224.50 0.96987
225.00 0.94456
225.50 0.91966
226.00 0.89538
226.50 0.87104
227.00 0.84684
227.50 0.82272
228.00 0.79794
228.50 0.77264
229.00 0.74873
229.50 0.72499
230.00 0.70115
230.50 0.67714
231.00 0.65458
231.50 0.63196
232.00 0.60929
232.50 0.58651
233.00 0.56268
233.50 0.54043
234.00 0.51886
234.50 0.49722
235.00 0.47552
235.50 0.45375
236.00 0.43180
236.50 0.41199
237.00 0.39211
237.50 0.37216
238.00 0.35225
238.50 0.33376
239.00 0.31521
239.50 0.29621
240.00 0.27715
240.50 0.25805
241.00 0.23890
241.50 0.22011
242.00 0.20646
242.50 0.19300
243.00 0.17949
243.50 0.16596
244.00 0.15239
244.50 0.13852
245.00 0.12937
245.50 0.12038
246.00 0.11139
246.50 0.10235
247.00 0.09320
247.50 0.08405
248.00 0.07675
248.50 0.07175
249.00 0.06675
249.50 0.06174
250.00 0.05665
250.50 0.05154
251.00 0.04644
251.50 0.04165
252.00 0.03868
252.50 0.03590
253.00 0.03313
253.50 0.03036
254.00 0.02759
254.50 0.02483
255.00 0.02285
255.50 0.02132
256.00 0.01979
256.50 0.01826
257.00 0.01674
257.50 0.01515
258.00 0.01357
258.50 0.01254
259.00 0.01172
259.50 0.01091
260.00 0.01009
260.50 0.00927
261.00 0.00845
261.50 0.00766
262.00 0.00709
262.50 0.00662
263.00 0.00617
263.50 0.00573
264.00 0.00529
264.50 0.00489
265.00 0.00466
265.50 0.00442
266.00 0.00419
266.50 0.00395
267.00 0.00370
267.50 0.00361
268.00 0.00352
268.50 0.00342
269.00 0.00332
269.50 0.00322
270.00 0.00313
270.00 0.00313
270.50 0.00322
271.00 0.00332
271.50 0.00342
272.00 0.00352
272.50 0.00361
273.00 0.00370
273.50 0.00395
274.00 0.00419
274.50 0.00442
275.00 0.00466
275.50 0.00489
276.00 0.00529
276.50 0.00573
277.00 0.00617
277.50 0.00662
278.00 0.00709
278.50 0.00766
279.00 0.00845
279.50 0.00927
280.00 0.01009
280.50 0.01091
281.00 0.01172
281.50 0.01254
282.00 0.01357
282.50 0.01515
283.00 0.01674
283.50 0.01826
284.00 0.01979
284.50 0.02132
285.00 0.02285
285.50 0.02483
286.00 0.02759
286.50 0.03036
287.00 0.03313
287.50 0.03590
288.00 0.03868
288.50 0.04165
289.00 0.04644
289.50 0.05154
290.00 0.05665
290.50 0.06174
291.00 0.06675
291.50 0.07175
292.00 0.07675
292.50 0.08405
293.00 0.09320
293.50 0.10235
294.00 0.11139
294.50 0.12038
295.00 0.12937
295.50 0.13852
296.00 0.15239
296.50 0.16596
297.00 0.17949
297.50 0.19300
298.00 0.20646
298.50 0.22011
299.00 0.23890
299.50 0.25805
300.00 0.27715
300.50 0.29621
301.00 0.31521
301.50 0.33376
302.00 0.35225
302.50 0.37216
303.00 0.39211
303.50 0.41199
304.00 0.43180
304.50 0.45375
305.00 0.47552
305.50 0.49722
306.00 0.51886
306.50 0.54043
307.00 0.56268
307.50 0.58651
308.00 0.60929
308.50 0.63196
309.00 0.65458
309.50 0.67714
310.00 0.70115
310.50 0.72499
311.00 0.74873
311.50 0.77264
312.00 0.79794
312.50 0.82272
313.00 0.84684
313.50 0.87104
314.00 0.89538
314.50 0.91966
315.00 0.94456
315.50 0.96987
316.00 0.99507
316.50 1.02023
317.00 1.04487
317.50 1.06928
318.00 1.09454
318.50 1.12104
319.00 1.14628
319.50 1.17146
320.00 1.19661
320.50 1.22312
321.00 1.24896
321.50 1.27438
322.00 1.29979
322.50 1.32518
323.00 1.35160
323.50 1.37679
324.00 1.40144
324.50 1.42608
325.00 1.45071
325.50 1.47471
326.00 1.49811
326.50 1.52150
327.00 1.54297
327.50 1.56297
328.00 1.58296
328.50 1.60294
329.00 1.62555
329.50 1.64703
330.00 1.66639
330.50 1.68578
331.00 1.70518
331.50 1.72390
332.00 1.74253
332.50 1.75984
333.00 1.77610
333.50 1.79238
334.00 1.80889
334.50 1.82610
335.00 1.84050
335.50 1.85479
336.00 1.86911
336.50 1.88283
337.00 1.89392
337.50 1.90502
338.00 1.91616
338.50 1.92578
339.00 1.93420
339.50 1.94267
340.00 1.94866
340.50 1.95306
341.00 1.95751
341.50 1.96436
342.00 1.97155
342.50 1.97881
343.00 1.98290
343.50 1.98601
344.00 1.98920
344.50 1.99248
345.00 1.99753
345.50 2.00329
346.00 2.00684
346.50 2.00962
347.00 2.01123
347.50 2.01274
348.00 2.01436
348.50 2.01609
349.00 2.01823
349.50 2.02100
350.00 2.02317
350.50 2.02329
351.00 2.02353
351.50 2.02390
352.00 2.02455
352.50 2.02544
353.00 2.02637
353.50 2.02647
354.00 2.02670
354.50 2.02705
355.00 2.02687
355.50 2.02682
356.00 2.02691
356.50 2.02712
357.00 2.02746
357.50 2.02832
358.00 2.02838
358.50 2.02881
359.00 2.02937
359.50 2.03006
360.00 2.03089
