phi[deg] B[T]
0.00 1.39302
0.50 1.39293
1.00 1.39295
1.50 1.39309
2.00 1.39335
2.50 1.39383
3.00 1.39442
3.50 1.39512
4.00 1.39591
4.50 1.39662
5.00 1.39744
5.50 1.39866
6.00 1.40020
6.50 1.40185
7.00 1.40291
7.50 1.40387
8.00 1.40494
8.50 1.40610
9.00 1.40825
9.50 1.41055
10.00 1.41200
10.50 1.41280
11.00 1.41312
11.50 1.41352
12.00 1.41400
12.50 1.41323
13.00 1.41198
13.50 1.41070
14.00 1.40877
14.50 1.40692
15.00 1.40515
15.50 1.40271
16.00 1.40022
16.50 1.39766
17.00 1.39424
17.50 1.39090
18.00 1.38764
18.50 1.38472
19.00 1.38260
19.50 1.38039
20.00 1.37805
20.50 1.37328
21.00 1.36854
21.50 1.36386
22.00 1.35920
22.50 1.35448
23.00 1.34980
23.50 1.34259
24.00 1.33310
24.50 1.32362
25.00 1.31416
25.50 1.30214
26.00 1.29009
26.50 1.27736
27.00 1.26298
27.50 1.24862
28.00 1.23429
28.50 1.21978
29.00 1.20505
29.50 1.18897
30.00 1.17282
30.50 1.15678
31.00 1.14078
31.50 1.12482
32.00 1.10883
32.50 1.09223
33.00 1.07569
33.50 1.05913
34.00 1.04259
34.50 1.02611
35.00 1.00969
35.50 0.99348
36.00 0.97761
36.50 0.96302
37.00 0.94899
37.50 0.93348
38.00 0.91801
38.50 0.90259
39.00 0.88920
39.50 0.87611
40.00 0.86169
40.50 0.84730
41.00 0.83215
41.50 0.81713
42.00 0.80235
42.50 0.78739
43.00 0.77136
43.50 0.75603
44.00 0.73994
44.50 0.72299
45.00 0.70612
45.50 0.68898
46.00 0.67185
46.50 0.65446
47.00 0.63677
47.50 0.61907
48.00 0.60181
48.50 0.58469
49.00 0.56804
49.50 0.55158
50.00 0.53506
50.50 0.52088
51.00 0.50762
51.50 0.49279
52.00 0.47595
52.50 0.45907
53.00 0.44216
53.50 0.42908
54.00 0.41732
54.50 0.40431
55.00 0.38982
55.50 0.37514
56.00 0.35718
56.50 0.33911
57.00 0.32092
57.50 0.30137
58.00 0.28140
58.50 0.26132
59.00 0.24193
59.50 0.22312
60.00 0.20396
60.50 0.18462
61.00 0.16521
61.50 0.14571
62.00 0.12925
62.50 0.11645
63.00 0.10333
63.50 0.09019
64.00 0.07704
64.50 0.06729
65.00 0.05986
65.50 0.05241
66.00 0.04510
66.50 0.03838
67.00 0.03424
67.50 0.03026
68.00 0.02629
68.50 0.02230
69.00 0.01923
69.50 0.01703
70.00 0.01484
70.50 0.01281
71.00 0.01087
71.50 0.00956
72.00 0.00853
72.50 0.00752
73.00 0.00653
73.50 0.00553
74.00 0.00473
74.50 0.00422
75.00 0.00371
75.50 0.00321
76.00 0.00282
76.50 0.00243
77.00 0.00211
77.50 0.00189
78.00 0.00167
78.50 0.00145
79.00 0.00126
79.50 0.00109
80.00 0.00098
80.50 0.00088
81.00 0.00079
81.50 0.00069
82.00 0.00060
82.50 0.00054
83.00 0.00049
83.50 0.00044
84.00 0.00039
84.50 0.00034
85.00 0.00031
85.50 0.00029
86.00 0.00026
86.50 0.00023
87.00 0.00022
87.50 0.00020
88.00 0.00019
88.50 0.00018
89.00 0.00017
89.50 0.00016
90.00 0.00016
90.00 0.00016
90.50 0.00016
91.00 0.00017
91.50 0.00018
92.00 0.00019
92.50 0.00020
93.00 0.00022
93.50 0.00023
94.00 0.00026
94.50 0.00029
95.00 0.00031
95.50 0.00034
96.00 0.00039
96.50 0.00044
97.00 0.00049
97.50 0.00054
98.00 0.00060
98.50 0.00069
99.00 0.00079
99.50 0.00088
100.00 0.00098
100.50 0.00109
101.00 0.00126
101.50 0.00145
102.00 0.00167
102.50 0.00189
103.00 0.00211
103.50 0.00243
104.00 0.00282
104.50 0.00321
105.00 0.00371
105.50 0.00422
106.00 0.00473
106.50 0.00553
107.00 0.00653
107.50 0.00752
108.00 0.00853
108.50 0.00956
109.00 0.01087
109.50 0.01281
110.00 0.01484
110.50 0.01703
111.00 0.01923
111.50 0.02230
112.00 0.02629
112.50 0.03026
113.00 0.03424
113.50 0.03838
114.00 0.04510
114.50 0.05241
115.00 0.05986
115.50 0.06729
116.00 0.07704
116.50 0.09019
117.00 0.10333
117.50 0.11645
118.00 0.12925
118.50 0.14571
119.00 0.16521
119.50 0.18462
120.00 0.20396
120.50 0.22312
121.00 0.24193
121.50 0.26132
122.00 0.28140
122.50 0.30137
123.00 0.32092
123.50 0.33911
124.00 0.35718
124.50 0.37514
125.00 0.38982
125.50 0.40431
126.00 0.41732
126.50 0.42908
127.00 0.44216
127.50 0.45907
128.00 0.47595
128.50 0.49279
129.00 0.50762
129.50 0.52088
130.00 0.53506
130.50 0.55158
131.00 0.56804
131.50 0.58469
132.00 0.60181
132.50 0.61907
133.00 0.63677
133.50 0.65446
134.00 0.67185
134.50 0.68898
135.00 0.70612
135.50 0.72299
136.00 0.73994
136.50 0.75603
137.00 0.77136
137.50 0.78739
138.00 0.80235
138.50 0.81713
139.00 0.83215
139.50 0.84730
140.00 0.86169
140.50 0.87611
141.00 0.88920
141.50 0.90259
142.00 0.91801
142.50 0.93348
143.00 0.94899
143.50 0.96302
144.00 0.97761
144.50 0.99348
145.00 1.00969
145.50 1.02611
146.00 1.04259
146.50 1.05913
147.00 1.07569
147.50 1.09223
148.00 1.10883
148.50 1.12482
149.00 1.14078
149.50 1.15678
150.00 1.17282
150.50 1.18897
151.00 1.20505
151.50 1.21978
152.00 1.23429
152.50 1.24862
153.00 1.26298
153.50 1.27736
154.00 1.29009
154.50 1.30214
155.00 1.31416
155.50 1.32362
156.00 1.33310
156.50 1.34259
157.00 1.34980
157.50 1.35448
158.00 1.35920
158.50 1.36386
159.00 1.36854
159.50 1.37328
160.00 1.37805
160.50 1.38039
161.00 1.38260
161.50 1.38472
162.00 1.38764
162.50 1.39090
163.00 1.39424
163.50 1.39766
164.00 1.40022
164.50 1.40271
165.00 1.40515
165.50 1.40692
166.00 1.40877
166.50 1.41070
167.00 1.41198
167.50 1.41323
168.00 1.41400
168.50 1.41352
169.00 1.41312
169.50 1.41280
170.00 1.41200
170.50 1.41055
171.00 1.40825
171.50 1.40610
172.00 1.40494
172.50 1.40387
173.00 1.40291
173.50 1.40185
174.00 1.40020
174.50 1.39866
175.00 1.39744
175.50 1.39662
176.00 1.39591
176.50 1.39512
177.00 1.39442
177.50 1.39383
178.00 1.39335
178.50 1.39309
179.00 1.39295
179.50 1.39293
180.00 1.39302
180.00 1.39302
180.50 1.39293
181.00 1.39295
181.50 1.39309
182.00 1.39335
182.50 1.39383
183.00 1.39442
183.50 1.39512
184.00 1.39591
184.50 1.39662
185.00 1.39744
185.50 1.39866
186.00 1.40020
186.50 1.40185
187.00 1.40291
187.50 1.40387
188.00 1.40494
188.50 1.40610
189.00 1.40825
189.50 1.41055
190.00 1.41200
190.50 1.41280
191.00 1.41312
191.50 1.41352
192.00 1.41400
192.50 1.41323
193.00 1.41198
193.50 1.41070
194.00 1.40877
194.50 1.40692
195.00 1.40515
195.50 1.40271
196.00 1.40022
196.50 1.39766
197.00 1.39424
197.50 1.39090
198.00 1.38764
198.50 1.38472
199.00 1.38260
199.50 1.38039
200.00 1.37805
200.50 1.37328
201.00 1.36854
201.50 1.36386
202.00 1.35920
202.50 1.35448
203.00 1.34980
203.50 1.34259
204.00 1.33310
204.50 1.32362
205.00 1.31416
205.50 1.30214
206.00 1.29009
206.50 1.27736
207.00 1.26298
207.50 1.24862
208.00 1.23429
208.50 1.21978
209.00 1.20505
209.50 1.18897
210.00 1.17282
210.50 1.15678
211.00 1.14078
211.50 1.12482
212.00 1.10883
212.50 1.09223
213.00 1.07569
213.50 1.05913
214.00 1.04259
214.50 1.02611
215.00 1.00969
215.50 0.99348
216.00 0.97761
216.50 0.96302
217.00 0.94899
217.50 0.93348
218.00 0.91801
218.50 0.90259
219.00 0.88920
219.50 0.87611
220.00 0.86169
220.50 0.84730
221.00 0.83215
221.50 0.81713
222.00 0.80235
222.50 0.78739
223.00 0.77136
223.50 0.75603
224.00 0.73994
224.50 0.72299
225.00 0.70612
225.50 0.68898
226.00 0.67185
226.50 0.65446
227.00 0.63677
227.50 0.61907
228.00 0.60181
228.50 0.58469
229.00 0.56804
229.50 0.55158
230.00 0.53506
230.50 0.52088
231.00 0.50762
231.50 0.49279
232.00 0.47595
232.50 0.45907
233.00 0.44216
233.50 0.42908
234.00 0.41732
234.50 0.40431
235.00 0.38982
235.50 0.37514
236.00 0.35718
236.50 0.33911
237.00 0.32092
237.50 0.30137
238.00 0.28140
238.50 0.26132
239.00 0.24193
239.50 0.22312
240.00 0.20396
240.50 0.18462
241.00 0.16521
241.50 0.14571
242.00 0.12925
242.50 0.11645
243.00 0.10333
243.50 0.09019
244.00 0.07704
244.50 0.06729
245.00 0.05986
245.50 0.05241
246.00 0.04510
246.50 0.03838
247.00 0.03424
247.50 0.03026
248.00 0.02629
248.50 0.02230
249.00 0.01923
249.50 0.01703
250.00 0.01484
250.50 0.01281
251.00 0.01087
251.50 0.00956
252.00 0.00853
252.50 0.00752
253.00 0.00653
253.50 0.00553
254.00 0.00473
254.50 0.00422
255.00 0.00371
255.50 0.00321
256.00 0.00282
256.50 0.00243
257.00 0.00211
257.50 0.00189
258.00 0.00167
258.50 0.00145
259.00 0.00126
259.50 0.00109
260.00 0.00098
260.50 0.00088
261.00 0.00079
261.50 0.00069
262.00 0.00060
262.50 0.00054
263.00 0.00049
263.50 0.00044
264.00 0.00039
264.50 0.00034
265.00 0.00031
265.50 0.00029
266.00 0.00026
266.50 0.00023
267.00 0.00022
267.50 0.00020
268.00 0.00019
268.50 0.00018
269.00 0.00017
269.50 0.00016
270.00 0.00016
270.00 0.00016
270.50 0.00016
271.00 0.00017
271.50 0.00018
272.00 0.00019
272.50 0.00020
273.00 0.00022
273.50 0.00023
274.00 0.00026
274.50 0.00029
275.00 0.00031
275.50 0.00034
276.00 0.00039
276.50 0.00044
277.00 0.00049
277.50 0.00054
278.00 0.00060
278.50 0.00069
279.00 0.00079
279.50 0.00088
280.00 0.00098
280.50 0.00109
281.00 0.00126
281.50 0.00145
282.00 0.00167
282.50 0.00189
283.00 0.00211
283.50 0.00243
284.00 0.00282
284.50 0.00321
285.00 0.00371
285.50 0.00422
286.00 0.00473
286.50 0.00553
287.00 0.00653
287.50 0.00752
288.00 0.00853
288.50 0.00956
289.00 0.01087
289.50 0.01281
290.00 0.01484
290.50 0.01703
291.00 0.01923
291.50 0.02230
292.00 0.02629
292.50 0.03026
293.00 0.03424
293.50 0.03838
294.00 0.04510
294.50 0.05241
295.00 0.05986
295.50 0.06729
296.00 0.07704
296.50 0.09019
297.00 0.10333
297.50 0.11645
298.00 0.12925
298.50 0.14571
299.00 0.16521
299.50 0.18462
300.00 0.20396
300.50 0.22312
301.00 0.24193
301.50 0.26132
302.00 0.28140
302.50 0.30137
303.00 0.32092
303.50 0.33911
304.00 0.35718
304.50 0.37514
305.00 0.38982
305.50 0.40431
306.00 0.41732
306.50 0.42908
307.00 0.44216
307.50 0.45907
308.00 0.47595
308.50 0.49279
309.00 0.50762
309.50 0.52088
310.00 0.53506
310.50 0.55158
311.00 0.56804
311.50 0.58469
312.00 0.60181
312.50 0.61907
313.00 0.63677
313.50 0.65446
314.00 0.67185
314.50 0.68898
315.00 0.70612
315.50 0.72299
316.00 0.73994
316.50 0.75603
317.00 0.77136
317.50 0.78739
318.00 0.80235
318.50 0.81713
319.00 0.83215
319.50 0.84730
320.00 0.86169
320.50 0.87611
321.00 0.88920
321.50 0.90259
322.00 0.91801
322.50 0.93348
323.00 0.94899
323.50 0.96302
324.00 0.97761
324.50 0.99348
325.00 1.00969
325.50 1.02611
326.00 1.04259
326.50 1.05913
327.00 1.07569
327.50 1.09223
328.00 1.10883
328.50 1.12482
329.00 1.14078
329.50 1.15678
330.00 1.17282
330.50 1.18897
331.00 1.20505
331.50 1.21978
332.00 1.23429
332.50 1.24862
333.00 1.26298
333.50 1.27736
334.00 1.29009
334.50 1.30214
335.00 1.31416
335.50 1.32362
336.00 1.33310
336.50 1.34259
337.00 1.34980
337.50 1.35448
338.00 1.35920
338.50 1.36386
339.00 1.36854
339.50 1.37328
340.00 1.37805
340.50 1.38039
341.00 1.38260
341.50 1.38472
342.00 1.38764
342.50 1.39090
343.00 1.39424
343.50 1.39766
344.00 1.40022
344.50 1.40271
345.00 1.40515
345.50 1.40692
346.00 1.40877
346.50 1.41070
347.00 1.41198
347.50 1.41323
348.00 1.41400
348.50 1.41352
349.00 1.41312
349.50 1.41280
350.00 1.41200
350.50 1.41055
351.00 1.40825
351.50 1.40610
352.00 1.40494
352.50 1.40387
353.00 1.40291
353.50 1.40185
354.00 1.40020
354.50 1.39866
355.00 1.39744
355.50 1.39662
356.00 1.39591
356.50 1.39512
357.00 1.39442
357.50 1.39383
358.00 1.39335
358.50 1.39309
359.00 1.39295
359.50 1.39293
360.00 1.39302
