phi[deg] B[T]
0.00 1.72824
0.50 1.72755
1.00 1.72699
1.50 1.72656
2.00 1.72621
2.50 1.72577
3.00 1.72547
3.50 1.72531
4.00 1.72530
4.50 1.72553
5.00 1.72591
5.50 1.72668
6.00 1.72777
6.50 1.72900
7.00 1.72998
7.50 1.73098
8.00 1.73210
8.50 1.73337
9.00 1.73601
9.50 1.73894
10.00 1.74093
10.50 1.74204
11.00 1.74250
11.50 1.74305
12.00 1.74371
12.50 1.74271
13.00 1.74109
13.50 1.73948
14.00 1.73735
14.50 1.73532
15.00 1.73338
15.50 1.73094
16.00 1.72850
16.50 1.72596
17.00 1.72238
17.50 1.71890
18.00 1.71552
18.50 1.71275
19.00 1.71146
19.50 1.70984
20.00 1.70796
20.50 1.70233
21.00 1.69675
21.50 1.69120
22.00 1.68556
22.50 1.67847
23.00 1.67143
23.50 1.66151
24.00 1.64900
24.50 1.63650
25.00 1.62403
25.50 1.60662
26.00 1.58917
26.50 1.57168
27.00 1.55406
27.50 1.53649
28.00 1.51898
28.50 1.50104
29.00 1.48262
29.50 1.46548
30.00 1.44805
30.50 1.42982
31.00 1.41165
31.50 1.39354
32.00 1.37574
32.50 1.35984
33.00 1.34398
33.50 1.32514
34.00 1.30513
34.50 1.28515
35.00 1.26522
35.50 1.24611
36.00 1.22852
36.50 1.20787
37.00 1.18580
37.50 1.16415
38.00 1.14253
38.50 1.12094
39.00 1.09919
39.50 1.07745
40.00 1.05560
40.50 1.03379
41.00 1.01186
41.50 0.99047
42.00 0.96930
42.50 0.94812
43.00 0.92702
43.50 0.90649
44.00 0.88601
44.50 0.86558
45.00 0.84522
45.50 0.82572
46.00 0.80624
46.50 0.78754
47.00 0.76936
47.50 0.75125
48.00 0.73440
48.50 0.71750
49.00 0.70173
49.50 0.68574
50.00 0.66975
50.50 0.65799
51.00 0.64695
51.50 0.63064
52.00 0.61233
52.50 0.59396
53.00 0.57573
53.50 0.56429
54.00 0.55275
54.50 0.53749
55.00 0.52046
55.50 0.50302
56.00 0.48060
56.50 0.45802
57.00 0.43528
57.50 0.40938
58.00 0.38324
58.50 0.35697
59.00 0.33134
59.50 0.30629
60.00 0.28030
60.50 0.25393
61.00 0.22745
61.50 0.20085
62.00 0.17821
62.50 0.16054
63.00 0.14245
63.50 0.12434
64.00 0.10621
64.50 0.09284
65.00 0.08266
65.50 0.07246
66.00 0.06238
66.50 0.05268
67.00 0.04702
67.50 0.04161
68.00 0.03620
68.50 0.03078
69.00 0.02641
69.50 0.02341
70.00 0.02041
70.50 0.01762
71.00 0.01495
71.50 0.01308
72.00 0.01166
72.50 0.01028
73.00 0.00891
73.50 0.00755
74.00 0.00644
74.50 0.00574
75.00 0.00504
75.50 0.00435
76.00 0.00381
76.50 0.00328
77.00 0.00285
77.50 0.00254
78.00 0.00223
78.50 0.00193
79.00 0.00168
79.50 0.00144
80.00 0.00129
80.50 0.00116
81.00 0.00103
81.50 0.00090
82.00 0.00077
82.50 0.00069
83.00 0.00063
83.50 0.00056
84.00 0.00049
84.50 0.00043
85.00 0.00038
85.50 0.00034
86.00 0.00030
86.50 0.00026
87.00 0.00024
87.50 0.00021
88.00 0.00019
88.50 0.00017
89.00 0.00016
89.50 0.00015
90.00 0.00014
90.00 0.00014
90.50 0.00015
91.00 0.00016
91.50 0.00017
92.00 0.00019
92.50 0.00021
93.00 0.00024
93.50 0.00026
94.00 0.00030
94.50 0.00034
95.00 0.00038
95.50 0.00043
96.00 0.00049
96.50 0.00056
97.00 0.00063
97.50 0.00069
98.00 0.00077
98.50 0.00090
99.00 0.00103
99.50 0.00116
100.00 0.00129
100.50 0.00144
101.00 0.00168
101.50 0.00193
102.00 0.00223
102.50 0.00254
103.00 0.00285
103.50 0.00328
104.00 0.00381
104.50 0.00435
105.00 0.00504
105.50 0.00574
106.00 0.00644
106.50 0.00755
107.00 0.00891
107.50 0.01028
108.00 0.01166
108.50 0.01308
109.00 0.01495
109.50 0.01762
110.00 0.02041
110.50 0.02341
111.00 0.02641
111.50 0.03078
112.00 0.03620
112.50 0.04161
113.00 0.04702
113.50 0.05268
114.00 0.06238
114.50 0.07246
115.00 0.08266
115.50 0.09284
116.00 0.10621
116.50 0.12434
117.00 0.14245
117.50 0.16054
118.00 0.17821
118.50 0.20085
119.00 0.22745
119.50 0.25393
120.00 0.28030
120.50 0.30629
121.00 0.33134
121.50 0.35697
122.00 0.38324
122.50 0.40938
123.00 0.43528
123.50 0.45802
124.00 0.48060
124.50 0.50302
125.00 0.52046
125.50 0.53749
126.00 0.55275
126.50 0.56429
127.00 0.57573
127.50 0.59396
128.00 0.61233
128.50 0.63064
129.00 0.64695
129.50 0.65799
130.00 0.66975
130.50 0.68574
131.00 0.70173
131.50 0.71750
132.00 0.73440
132.50 0.75125
133.00 0.76936
133.50 0.78754
134.00 0.80624
134.50 0.82572
135.00 0.84522
135.50 0.86558
136.00 0.88601
136.50 0.90649
137.00 0.92702
137.50 0.94812
138.00 0.96930
138.50 0.99047
139.00 1.01186
139.50 1.03379
140.00 1.05560
140.50 1.07745
141.00 1.09919
141.50 1.12094
142.00 1.14253
142.50 1.16415
143.00 1.18580
143.50 1.20787
144.00 1.22852
144.50 1.24611
145.00 1.26522
145.50 1.28515
146.00 1.30513
146.50 1.32514
147.00 1.34398
147.50 1.35984
148.00 1.37574
148.50 1.39354
149.00 1.41165
149.50 1.42982
150.00 1.44805
150.50 1.46548
151.00 1.48262
151.50 1.50104
152.00 1.51898
152.50 1.53649
153.00 1.55406
153.50 1.57168
154.00 1.58917
154.50 1.60662
155.00 1.62403
155.50 1.63650
156.00 1.64900
156.50 1.66151
157.00 1.67143
157.50 1.67847
158.00 1.68556
158.50 1.69120
159.00 1.69675
159.50 1.70233
160.00 1.70796
160.50 1.70984
161.00 1.71146
161.50 1.71275
162.00 1.71552
162.50 1.71890
163.00 1.72238
163.50 1.72596
164.00 1.72850
164.50 1.73094
165.00 1.73338
165.50 1.73532
166.00 1.73735
166.50 1.73948
167.00 1.74109
167.50 1.74271
168.00 1.74371
168.50 1.74305
169.00 1.74250
169.50 1.74204
170.00 1.74093
170.50 1.73894
171.00 1.73601
171.50 1.73337
172.00 1.73210
172.50 1.73098
173.00 1.72998
173.50 1.72900
174.00 1.72777
174.50 1.72668
175.00 1.72591
175.50 1.72553
176.00 1.72530
176.50 1.72531
177.00 1.72547
177.50 1.72577
178.00 1.72621
178.50 1.72656
179.00 1.72699
179.50 1.72755
180.00 1.72824
180.00 1.72824
180.50 1.72755
181.00 1.72699
181.50 1.72656
182.00 1.72621
182.50 1.72577
183.00 1.72547
183.50 1.72531
184.00 1.72530
184.50 1.72553
185.00 1.72591
185.50 1.72668
186.00 1.72777
186.50 1.72900
187.00 1.72998
187.50 1.73098
188.00 1.73210
188.50 1.73337
189.00 1.73601
189.50 1.73894
190.00 1.74093
190.50 1.74204
191.00 1.74250
191.50 1.74305
192.00 1.74371
192.50 1.74271
193.00 1.74109
193.50 1.73948
194.00 1.73735
194.50 1.73532
195.00 1.73338
195.50 1.73094
196.00 1.72850
196.50 1.72596
197.00 1.72238
197.50 1.71890
198.00 1.71552
198.50 1.71275
199.00 1.71146
199.50 1.70984
200.00 1.70796
200.50 1.70233
201.00 1.69675
201.50 1.69120
202.00 1.68556
202.50 1.67847
203.00 1.67143
203.50 1.66151
204.00 1.64900
204.50 1.63650
205.00 1.62403
205.50 1.60662
206.00 1.58917
206.50 1.57168
207.00 1.55406
207.50 1.53649
208.00 1.51898
208.50 1.50104
209.00 1.48262
209.50 1.46548
210.00 1.44805
210.50 1.42982
211.00 1.41165
211.50 1.39354
212.00 1.37574
212.50 1.35984
213.00 1.34398
213.50 1.32514
214.00 1.30513
214.50 1.28515
215.00 1.26522
215.50 1.24611
216.00 1.22852
216.50 1.20787
217.00 1.18580
217.50 1.16415
218.00 1.14253
218.50 1.12094
219.00 1.09919
219.50 1.07745
220.00 1.05560
220.50 1.03379
221.00 1.01186
221.50 0.99047
222.00 0.96930
222.50 0.94812
223.00 0.92702
223.50 0.90649
224.00 0.88601
224.50 0.86558
225.00 0.84522
225.50 0.82572
226.00 0.80624
226.50 0.78754
227.00 0.76936
227.50 0.75125
228.00 0.73440
228.50 0.71750
229.00 0.70173
229.50 0.68574
230.00 0.66975
230.50 0.65799
231.00 0.64695
231.50 0.63064
232.00 0.61233
232.50 0.59396
233.00 0.57573
233.50 0.56429
234.00 0.55275
234.50 0.53749
235.00 0.52046
235.50 0.50302
236.00 0.48060
236.50 0.45802
237.00 0.43528
237.50 0.40938
238.00 0.38324
238.50 0.35697
239.00 0.33134
239.50 0.30629
240.00 0.28030
240.50 0.25393
241.00 0.22745
241.50 0.20085
242.00 0.17821
242.50 0.16054
243.00 0.14245
243.50 0.12434
244.00 0.10621
244.50 0.09284
245.00 0.08266
245.50 0.07246
246.00 0.06238
246.50 0.05268
247.00 0.04702
247.50 0.04161
248.00 0.03620
248.50 0.03078
249.00 0.02641
249.50 0.02341
250.00 0.02041
250.50 0.01762
251.00 0.01495
251.50 0.01308
252.00 0.01166
252.50 0.01028
253.00 0.00891
253.50 0.00755
254.00 0.00644
254.50 0.00574
255.00 0.00504
255.50 0.00435
256.00 0.00381
256.50 0.00328
257.00 0.00285
257.50 0.00254
258.00 0.00223
258.50 0.00193
259.00 0.00168
259.50 0.00144
260.00 0.00129
260.50 0.00116
261.00 0.00103
261.50 0.00090
262.00 0.00077
262.50 0.00069
263.00 0.00063
263.50 0.00056
264.00 0.00049
264.50 0.00043
265.00 0.00038
265.50 0.00034
266.00 0.00030
266.50 0.00026
267.00 0.00024
267.50 0.00021
268.00 0.00019
268.50 0.00017
269.00 0.00016
269.50 0.00015
270.00 0.00014
270.00 0.00014
270.50 0.00015
271.00 0.00016
271.50 0.00017
272.00 0.00019
272.50 0.00021
273.00 0.00024
273.50 0.00026
274.00 0.00030
274.50 0.00034
275.00 0.00038
275.50 0.00043
276.00 0.00049
276.50 0.00056
277.00 0.00063
277.50 0.00069
278.00 0.00077
278.50 0.00090
279.00 0.00103
279.50 0.00116
280.00 0.00129
280.50 0.00144
281.00 0.00168
281.50 0.00193
282.00 0.00223
282.50 0.00254
283.00 0.00285
283.50 0.00328
284.00 0.00381
284.50 0.00435
285.00 0.00504
285.50 0.00574
286.00 0.00644
286.50 0.00755
287.00 0.00891
287.50 0.01028
288.00 0.01166
288.50 0.01308
289.00 0.01495
289.50 0.01762
290.00 0.02041
290.50 0.02341
291.00 0.02641
291.50 0.03078
292.00 0.03620
292.50 0.04161
293.00 0.04702
293.50 0.05268
294.00 0.06238
294.50 0.07246
295.00 0.08266
295.50 0.09284
296.00 0.10621
296.50 0.12434
297.00 0.14245
297.50 0.16054
298.00 0.17821
298.50 0.20085
299.00 0.22745
299.50 0.25393
300.00 0.28030
300.50 0.30629
301.00 0.33134
301.50 0.35697
302.00 0.38324
302.50 0.40938
303.00 0.43528
303.50 0.45802
304.00 0.48060
304.50 0.50302
305.00 0.52046
305.50 0.53749
306.00 0.55275
306.50 0.56429
307.00 0.57573
307.50 0.59396
308.00 0.61233
308.50 0.63064
309.00 0.64695
309.50 0.65799
310.00 0.66975
310.50 0.68574
311.00 0.70173
311.50 0.71750
312.00 0.73440
312.50 0.75125
313.00 0.76936
313.50 0.78754
314.00 0.80624
314.50 0.82572
315.00 0.84522
315.50 0.86558
316.00 0.88601
316.50 0.90649
317.00 0.92702
317.50 0.94812
318.00 0.96930
318.50 0.99047
319.00 1.01186
319.50 1.03379
320.00 1.05560
320.50 1.07745
321.00 1.09919
321.50 1.12094
322.00 1.14253
322.50 1.16415
323.00 1.18580
323.50 1.20787
324.00 1.22852
324.50 1.24611
325.00 1.26522
325.50 1.28515
326.00 1.30513
326.50 1.32514
327.00 1.34398
327.50 1.35984
328.00 1.37574
328.50 1.39354
329.00 1.41165
329.50 1.42982
330.00 1.44805
330.50 1.46548
331.00 1.48262
331.50 1.50104
332.00 1.51898
332.50 1.53649
333.00 1.55406
333.50 1.57168
334.00 1.58917
334.50 1.60662
335.00 1.62403
335.50 1.63650
336.00 1.64900
336.50 1.66151
337.00 1.67143
337.50 1.67847
338.00 1.68556
338.50 1.69120
339.00 1.69675
339.50 1.70233
340.00 1.70796
340.50 1.70984
341.00 1.71146
341.50 1.71275
342.00 1.71552
342.50 1.71890
343.00 1.72238
343.50 1.72596
344.00 1.72850
344.50 1.73094
345.00 1.73338
345.50 1.73532
346.00 1.73735
346.50 1.73948
347.00 1.74109
347.50 1.74271
348.00 1.74371
348.50 1.74305
349.00 1.74250
349.50 1.74204
350.00 1.74093
350.50 1.73894
351.00 1.73601
351.50 1.73337
352.00 1.73210
352.50 1.73098
353.00 1.72998
353.50 1.72900
354.00 1.72777
354.50 1.72668
355.00 1.72591
355.50 1.72553
356.00 1.72530
356.50 1.72531
357.00 1.72547
357.50 1.72577
358.00 1.72621
358.50 1.72656
359.00 1.72699
359.50 1.72755
360.00 1.72824
