phi[deg] B[T]
0.00 1.69297
0.50 1.69294
1.00 1.69304
1.50 1.69327
2.00 1.69363
2.50 1.69412
3.00 1.69486
3.50 1.69582
4.00 1.69689
4.50 1.69809
5.00 1.69941
5.50 1.70089
6.00 1.70258
6.50 1.70439
7.00 1.70632
7.50 1.70727
8.00 1.70792
8.50 1.70893
9.00 1.71021
9.50 1.71161
10.00 1.71312
10.50 1.71435
11.00 1.71279
11.50 1.71132
12.00 1.71126
12.50 1.71137
13.00 1.71157
13.50 1.71155
14.00 1.70920
14.50 1.70692
15.00 1.70473
15.50 1.70191
16.00 1.69811
16.50 1.69438
17.00 1.69066
17.50 1.68609
18.00 1.68159
18.50 1.67716
19.00 1.67281
19.50 1.66853
20.00 1.66329
20.50 1.65535
21.00 1.64785
21.50 1.64043
22.00 1.63307
22.50 1.62576
23.00 1.61849
23.50 1.61128
24.00 1.59893
24.50 1.58620
25.00 1.57336
25.50 1.56026
26.00 1.54719
26.50 1.53416
27.00 1.52116
27.50 1.50821
28.00 1.49151
28.50 1.47428
29.00 1.45707
29.50 1.44076
30.00 1.42567
30.50 1.41059
31.00 1.39552
31.50 1.37957
32.00 1.36184
32.50 1.34413
33.00 1.32644
33.50 1.30714
34.00 1.28701
34.50 1.26688
35.00 1.24675
35.50 1.22720
36.00 1.20771
36.50 1.18822
37.00 1.16675
37.50 1.14475
38.00 1.12276
38.50 1.10077
39.00 1.07871
39.50 1.05699
40.00 1.03535
40.50 1.01373
41.00 0.99212
41.50 0.96999
42.00 0.94844
42.50 0.92758
43.00 0.90671
43.50 0.88638
44.00 0.86615
44.50 0.84594
45.00 0.82542
45.50 0.80603
46.00 0.78734
46.50 0.76865
47.00 0.75031
47.50 0.73374
48.00 0.71717
48.50 0.69986
49.00 0.68195
49.50 0.66672
50.00 0.65147
50.50 0.63620
51.00 0.62090
51.50 0.60282
52.00 0.58731
52.50 0.57218
53.00 0.55699
53.50 0.54172
54.00 0.52706
54.50 0.51273
55.00 0.49835
55.50 0.48280
56.00 0.46352
56.50 0.44416
57.00 0.42512
57.50 0.40615
58.00 0.38711
58.50 0.36798
59.00 0.34878
59.50 0.33091
60.00 0.31333
60.50 0.29568
61.00 0.27708
61.50 0.25774
62.00 0.23836
62.50 0.21893
63.00 0.20169
63.50 0.18653
64.00 0.17133
64.50 0.15609
65.00 0.14229
65.50 0.13073
66.00 0.12026
66.50 0.11105
67.00 0.10181
67.50 0.09257
68.00 0.08332
68.50 0.07664
69.00 0.07122
69.50 0.06579
70.00 0.06037
70.50 0.05497
71.00 0.04999
71.50 0.04500
72.00 0.04002
72.50 0.03632
73.00 0.03387
73.50 0.03141
74.00 0.02896
74.50 0.02654
75.00 0.02413
75.50 0.02171
76.00 0.01930
76.50 0.01761
77.00 0.01630
77.50 0.01499
78.00 0.01368
78.50 0.01245
79.00 0.01143
79.50 0.01041
80.00 0.00939
80.50 0.00866
81.00 0.00799
81.50 0.00733
82.00 0.00672
82.50 0.00623
83.00 0.00575
83.50 0.00526
84.00 0.00484
84.50 0.00450
85.00 0.00417
85.50 0.00397
86.00 0.00378
86.50 0.00358
87.00 0.00339
87.50 0.00320
88.00 0.00309
88.50 0.00301
89.00 0.00292
89.50 0.00284
90.00 0.00276
90.00 0.00276
90.50 0.00284
91.00 0.00292
91.50 0.00301
92.00 0.00309
92.50 0.00320
93.00 0.00339
93.50 0.00358
94.00 0.00378
94.50 0.00397
95.00 0.00417
95.50 0.00450
96.00 0.00484
96.50 0.00526
97.00 0.00575
97.50 0.00623
98.00 0.00672
98.50 0.00733
99.00 0.00799
99.50 0.00866
100.00 0.00939
100.50 0.01041
101.00 0.01143
101.50 0.01245
102.00 0.01368
102.50 0.01499
103.00 0.01630
103.50 0.01761
104.00 0.01930
104.50 0.02171
105.00 0.02413
105.50 0.02654
106.00 0.02896
106.50 0.03141
107.00 0.03387
107.50 0.03632
108.00 0.04002
108.50 0.04500
109.00 0.04999
109.50 0.05497
110.00 0.06037
110.50 0.06579
111.00 0.07122
111.50 0.07664
112.00 0.08332
112.50 0.09257
113.00 0.10181
113.50 0.11105
114.00 0.12026
114.50 0.13073
115.00 0.14229
115.50 0.15609
116.00 0.17133
116.50 0.18653
117.00 0.20169
117.50 0.21893
118.00 0.23836
118.50 0.25774
119.00 0.27708
119.50 0.29568
120.00 0.31333
120.50 0.33091
121.00 0.34878
121.50 0.36798
122.00 0.38711
122.50 0.40615
123.00 0.42512
123.50 0.44416
124.00 0.46352
124.50 0.48280
125.00 0.49835
125.50 0.51273
126.00 0.52706
126.50 0.54172
127.00 0.55699
127.50 0.57218
128.00 0.58731
128.50 0.60282
129.00 0.62090
129.50 0.63620
130.00 0.65147
130.50 0.66672
131.00 0.68195
131.50 0.69986
132.00 0.71717
132.50 0.73374
133.00 0.75031
133.50 0.76865
134.00 0.78734
134.50 0.80603
135.00 0.82542
135.50 0.84594
136.00 0.86615
136.50 0.88638
137.00 0.90671
137.50 0.92758
138.00 0.94844
138.50 0.96999
139.00 0.99212
139.50 1.01373
140.00 1.03535
140.50 1.05699
141.00 1.07871
141.50 1.10077
142.00 1.12276
142.50 1.14475
143.00 1.16675
143.50 1.18822
144.00 1.20771
144.50 1.22720
145.00 1.24675
145.50 1.26688
146.00 1.28701
146.50 1.30714
147.00 1.32644
147.50 1.34413
148.00 1.36184
148.50 1.37957
149.00 1.39552
149.50 1.41059
150.00 1.42567
150.50 1.44076
151.00 1.45707
151.50 1.47428
152.00 1.49151
152.50 1.50821
153.00 1.52116
153.50 1.53416
154.00 1.54719
154.50 1.56026
155.00 1.57336
155.50 1.58620
156.00 1.59893
156.50 1.61128
157.00 1.61849
157.50 1.62576
158.00 1.63307
158.50 1.64043
159.00 1.64785
159.50 1.65535
160.00 1.66329
160.50 1.66853
161.00 1.67281
161.50 1.67716
162.00 1.68159
162.50 1.68609
163.00 1.69066
163.50 1.69438
164.00 1.69811
164.50 1.70191
165.00 1.70473
165.50 1.70692
166.00 1.70920
166.50 1.71155
167.00 1.71157
167.50 1.71137
168.00 1.71126
168.50 1.71132
169.00 1.71279
169.50 1.71435
170.00 1.71312
170.50 1.71161
171.00 1.71021
171.50 1.70893
172.00 1.70792
172.50 1.70727
173.00 1.70632
173.50 1.70439
174.00 1.70258
174.50 1.70089
175.00 1.69941
175.50 1.69809
176.00 1.69689
176.50 1.69582
177.00 1.69486
177.50 1.69412
178.00 1.69363
178.50 1.69327
179.00 1.69304
179.50 1.69294
180.00 1.69297
180.00 1.69297
180.50 1.69294
181.00 1.69304
181.50 1.69327
182.00 1.69363
182.50 1.69412
183.00 1.69486
183.50 1.69582
184.00 1.69689
184.50 1.69809
185.00 1.69941
185.50 1.70089
186.00 1.70258
186.50 1.70439
187.00 1.70632
187.50 1.70727
188.00 1.70792
188.50 1.70893
189.00 1.71021
189.50 1.71161
190.00 1.71312
190.50 1.71435
191.00 1.71279
191.50 1.71132
192.00 1.71126
192.50 1.71137
193.00 1.71157
193.50 1.71155
194.00 1.70920
194.50 1.70692
195.00 1.70473
195.50 1.70191
196.00 1.69811
196.50 1.69438
197.00 1.69066
197.50 1.68609
198.00 1.68159
198.50 1.67716
199.00 1.67281
199.50 1.66853
200.00 1.66329
200.50 1.65535
201.00 1.64785
201.50 1.64043
202.00 1.63307
202.50 1.62576
203.00 1.61849
203.50 1.61128
204.00 1.59893
204.50 1.58620
205.00 1.57336
205.50 1.56026
206.00 1.54719
206.50 1.53416
207.00 1.52116
207.50 1.50821
208.00 1.49151
208.50 1.47428
209.00 1.45707
209.50 1.44076
210.00 1.42567
210.50 1.41059
211.00 1.39552
211.50 1.37957
212.00 1.36184
212.50 1.34413
213.00 1.32644
213.50 1.30714
214.00 1.28701
214.50 1.26688
215.00 1.24675
215.50 1.22720
216.00 1.20771
216.50 1.18822
217.00 1.16675
217.50 1.14475
218.00 1.12276
218.50 1.10077
219.00 1.07871
219.50 1.05699
220.00 1.03535
220.50 1.01373
221.00 0.99212
221.50 0.96999
222.00 0.94844
222.50 0.92758
223.00 0.90671
223.50 0.88638
224.00 0.86615
224.50 0.84594
225.00 0.82542
225.50 0.80603
226.00 0.78734
226.50 0.76865
227.00 0.75031
227.50 0.73374
228.00 0.71717
228.50 0.69986
229.00 0.68195
229.50 0.66672
230.00 0.65147
230.50 0.63620
231.00 0.62090
231.50 0.60282
232.00 0.58731
232.50 0.57218
233.00 0.55699
233.50 0.54172
234.00 0.52706
234.50 0.51273
235.00 0.49835
235.50 0.48280
236.00 0.46352
236.50 0.44416
237.00 0.42512
237.50 0.40615
238.00 0.38711
238.50 0.36798
239.00 0.34878
239.50 0.33091
240.00 0.31333
240.50 0.29568
241.00 0.27708
241.50 0.25774
242.00 0.23836
242.50 0.21893
243.00 0.20169
243.50 0.18653
244.00 0.17133
244.50 0.15609
245.00 0.14229
245.50 0.13073
246.00 0.12026
246.50 0.11105
247.00 0.10181
247.50 0.09257
248.00 0.08332
248.50 0.07664
249.00 0.07122
249.50 0.06579
250.00 0.06037
250.50 0.05497
251.00 0.04999
251.50 0.04500
252.00 0.04002
252.50 0.03632
253.00 0.03387
253.50 0.03141
254.00 0.02896
254.50 0.02654
255.00 0.02413
255.50 0.02171
256.00 0.01930
256.50 0.01761
257.00 0.01630
257.50 0.01499
258.00 0.01368
258.50 0.01245
259.00 0.01143
259.50 0.01041
260.00 0.00939
260.50 0.00866
261.00 0.00799
261.50 0.00733
262.00 0.00672
262.50 0.00623
263.00 0.00575
263.50 0.00526
264.00 0.00484
264.50 0.00450
265.00 0.00417
265.50 0.00397
266.00 0.00378
266.50 0.00358
267.00 0.00339
267.50 0.00320
268.00 0.00309
268.50 0.00301
269.00 0.00292
269.50 0.00284
270.00 0.00276
270.00 0.00276
270.50 0.00284
271.00 0.00292
271.50 0.00301
272.00 0.00309
272.50 0.00320
273.00 0.00339
273.50 0.00358
274.00 0.00378
274.50 0.00397
275.00 0.00417
275.50 0.00450
276.00 0.00484
276.50 0.00526
277.00 0.00575
277.50 0.00623
278.00 0.00672
278.50 0.00733
279.00 0.00799
279.50 0.00866
280.00 0.00939
280.50 0.01041
281.00 0.01143
281.50 0.01245
282.00 0.01368
282.50 0.01499
283.00 0.01630
283.50 0.01761
284.00 0.01930
284.50 0.02171
285.00 0.02413
285.50 0.02654
286.00 0.02896
286.50 0.03141
287.00 0.03387
287.50 0.03632
288.00 0.04002
288.50 0.04500
289.00 0.04999
289.50 0.05497
290.00 0.06037
290.50 0.06579
291.00 0.07122
291.50 0.07664
292.00 0.08332
292.50 0.09257
293.00 0.10181
293.50 0.11105
294.00 0.12026
294.50 0.13073
295.00 0.14229
295.50 0.15609
296.00 0.17133
296.50 0.18653
297.00 0.20169
297.50 0.21893
298.00 0.23836
298.50 0.25774
299.00 0.27708
299.50 0.29568
300.00 0.31333
300.50 0.33091
301.00 0.34878
301.50 0.36798
302.00 0.38711
302.50 0.40615
303.00 0.42512
303.50 0.44416
304.00 0.46352
304.50 0.48280
305.00 0.49835
305.50 0.51273
306.00 0.52706
306.50 0.54172
307.00 0.55699
307.50 0.57218
308.00 0.58731
308.50 0.60282
309.00 0.62090
309.50 0.63620
310.00 0.65147
310.50 0.66672
311.00 0.68195
311.50 0.69986
312.00 0.71717
312.50 0.73374
313.00 0.75031
313.50 0.76865
314.00 0.78734
314.50 0.80603
315.00 0.82542
315.50 0.84594
316.00 0.86615
316.50 0.88638
317.00 0.90671
317.50 0.92758
318.00 0.94844
318.50 0.96999
319.00 0.99212
319.50 1.01373
320.00 1.03535
320.50 1.05699
321.00 1.07871
321.50 1.10077
322.00 1.12276
322.50 1.14475
323.00 1.16675
323.50 1.18822
324.00 1.20771
324.50 1.22720
325.00 1.24675
325.50 1.26688
326.00 1.28701
326.50 1.30714
327.00 1.32644
327.50 1.34413
328.00 1.36184
328.50 1.37957
329.00 1.39552
329.50 1.41059
330.00 1.42567
330.50 1.44076
331.00 1.45707
331.50 1.47428
332.00 1.49151
332.50 1.50821
333.00 1.52116
333.50 1.53416
334.00 1.54719
334.50 1.56026
335.00 1.57336
335.50 1.58620
336.00 1.59893
336.50 1.61128
337.00 1.61849
337.50 1.62576
338.00 1.63307
338.50 1.64043
339.00 1.64785
339.50 1.65535
340.00 1.66329
340.50 1.66853
341.00 1.67281
341.50 1.67716
342.00 1.68159
342.50 1.68609
343.00 1.69066
343.50 1.69438
344.00 1.69811
344.50 1.70191
345.00 1.70473
345.50 1.70692
346.00 1.70920
346.50 1.71155
347.00 1.71157
347.50 1.71137
348.00 1.71126
348.50 1.71132
349.00 1.71279
349.50 1.71435
350.00 1.71312
350.50 1.71161
351.00 1.71021
351.50 1.70893
352.00 1.70792
352.50 1.70727
353.00 1.70632
353.50 1.70439
354.00 1.70258
354.50 1.70089
355.00 1.69941
355.50 1.69809
356.00 1.69689
356.50 1.69582
357.00 1.69486
357.50 1.69412
358.00 1.69363
358.50 1.69327
359.00 1.69304
359.50 1.69294
360.00 1.69297
