phi[deg] B[T]
0.00 1.76459
0.50 1.76419
1.00 1.76391
1.50 1.76376
2.00 1.76373
2.50 1.76384
3.00 1.76398
3.50 1.76428
4.00 1.76469
4.50 1.76523
5.00 1.76589
5.50 1.76658
6.00 1.76725
6.50 1.76804
7.00 1.76894
7.50 1.76903
8.00 1.76887
8.50 1.76894
9.00 1.76919
9.50 1.76956
10.00 1.77003
10.50 1.77025
11.00 1.76779
11.50 1.76543
12.00 1.76436
12.50 1.76346
13.00 1.76264
13.50 1.76163
14.00 1.75834
14.50 1.75514
15.00 1.75202
15.50 1.74834
16.00 1.74378
16.50 1.73929
17.00 1.73481
17.50 1.72958
18.00 1.72442
18.50 1.71935
19.00 1.71435
19.50 1.70944
20.00 1.70361
20.50 1.69520
21.00 1.68733
21.50 1.67956
22.00 1.67185
22.50 1.66419
23.00 1.65659
23.50 1.64905
24.00 1.63658
24.50 1.62374
25.00 1.61090
25.50 1.59802
26.00 1.58518
26.50 1.57238
27.00 1.55962
27.50 1.54691
28.00 1.53042
28.50 1.51340
29.00 1.49642
29.50 1.48048
30.00 1.46596
30.50 1.45147
31.00 1.43698
31.50 1.42162
32.00 1.40453
32.50 1.38746
33.00 1.37040
33.50 1.35143
34.00 1.33146
34.50 1.31149
35.00 1.29152
35.50 1.27240
36.00 1.25337
36.50 1.23434
37.00 1.21327
37.50 1.19166
38.00 1.17004
38.50 1.14843
39.00 1.12630
39.50 1.10489
40.00 1.08369
40.50 1.06249
41.00 1.04128
41.50 1.01871
42.00 0.99708
42.50 0.97658
43.00 0.95607
43.50 0.93515
44.00 0.91415
44.50 0.89314
45.00 0.87168
45.50 0.85010
46.00 0.82983
46.50 0.80951
47.00 0.78918
47.50 0.76897
48.00 0.74872
48.50 0.72812
49.00 0.70672
49.50 0.68698
50.00 0.66719
50.50 0.64736
51.00 0.62748
51.50 0.60629
52.00 0.58610
52.50 0.56698
53.00 0.54779
53.50 0.52853
54.00 0.51009
54.50 0.49204
55.00 0.47392
55.50 0.45472
56.00 0.43468
56.50 0.41457
57.00 0.39490
57.50 0.37526
58.00 0.35554
58.50 0.33576
59.00 0.31591
59.50 0.29889
60.00 0.28224
60.50 0.26553
61.00 0.24818
61.50 0.23045
62.00 0.21268
62.50 0.19488
63.00 0.17916
63.50 0.16574
64.00 0.15229
64.50 0.13880
65.00 0.12611
65.50 0.11570
66.00 0.10659
66.50 0.09843
67.00 0.09025
67.50 0.08207
68.00 0.07387
68.50 0.06783
69.00 0.06301
69.50 0.05820
70.00 0.05339
70.50 0.04861
71.00 0.04421
71.50 0.03982
72.00 0.03542
72.50 0.03212
73.00 0.02995
73.50 0.02778
74.00 0.02561
74.50 0.02347
75.00 0.02132
75.50 0.01918
76.00 0.01704
76.50 0.01556
77.00 0.01440
77.50 0.01325
78.00 0.01209
78.50 0.01102
79.00 0.01011
79.50 0.00920
80.00 0.00830
80.50 0.00764
81.00 0.00705
81.50 0.00646
82.00 0.00592
82.50 0.00549
83.00 0.00506
83.50 0.00464
84.00 0.00426
84.50 0.00396
85.00 0.00366
85.50 0.00349
86.00 0.00332
86.50 0.00315
87.00 0.00298
87.50 0.00281
88.00 0.00271
88.50 0.00264
89.00 0.00256
89.50 0.00249
90.00 0.00241
90.00 0.00241
90.50 0.00249
91.00 0.00256
91.50 0.00264
92.00 0.00271
92.50 0.00281
93.00 0.00298
93.50 0.00315
94.00 0.00332
94.50 0.00349
95.00 0.00366
95.50 0.00396
96.00 0.00426
96.50 0.00464
97.00 0.00506
97.50 0.00549
98.00 0.00592
98.50 0.00646
99.00 0.00705
99.50 0.00764
100.00 0.00830
100.50 0.00920
101.00 0.01011
101.50 0.01102
102.00 0.01209
102.50 0.01325
103.00 0.01440
103.50 0.01556
104.00 0.01704
104.50 0.01918
105.00 0.02132
105.50 0.02347
106.00 0.02561
106.50 0.02778
107.00 0.02995
107.50 0.03212
108.00 0.03542
108.50 0.03982
109.00 0.04421
109.50 0.04861
110.00 0.05339
110.50 0.05820
111.00 0.06301
111.50 0.06783
112.00 0.07387
112.50 0.08207
113.00 0.09025
113.50 0.09843
114.00 0.10659
114.50 0.11570
115.00 0.12611
115.50 0.13880
116.00 0.15229
116.50 0.16574
117.00 0.17916
117.50 0.19488
118.00 0.21268
118.50 0.23045
119.00 0.24818
119.50 0.26553
120.00 0.28224
120.50 0.29889
121.00 0.31591
121.50 0.33576
122.00 0.35554
122.50 0.37526
123.00 0.39490
123.50 0.41457
124.00 0.43468
124.50 0.45472
125.00 0.47392
125.50 0.49204
126.00 0.51009
126.50 0.52853
127.00 0.54779
127.50 0.56698
128.00 0.58610
128.50 0.60629
129.00 0.62748
129.50 0.64736
130.00 0.66719
130.50 0.68698
131.00 0.70672
131.50 0.72812
132.00 0.74872
132.50 0.76897
133.00 0.78918
133.50 0.80951
134.00 0.82983
134.50 0.85010
135.00 0.87168
135.50 0.89314
136.00 0.91415
136.50 0.93515
137.00 0.95607
137.50 0.97658
138.00 0.99708
138.50 1.01871
139.00 1.04128
139.50 1.06249
140.00 1.08369
140.50 1.10489
141.00 1.12630
141.50 1.14843
142.00 1.17004
142.50 1.19166
143.00 1.21327
143.50 1.23434
144.00 1.25337
144.50 1.27240
145.00 1.29152
145.50 1.31149
146.00 1.33146
146.50 1.35143
147.00 1.37040
147.50 1.38746
148.00 1.40453
148.50 1.42162
149.00 1.43698
149.50 1.45147
150.00 1.46596
150.50 1.48048
151.00 1.49642
151.50 1.51340
152.00 1.53042
152.50 1.54691
153.00 1.55962
153.50 1.57238
154.00 1.58518
154.50 1.59802
155.00 1.61090
155.50 1.62374
156.00 1.63658
156.50 1.64905
157.00 1.65659
157.50 1.66419
158.00 1.67185
158.50 1.67956
159.00 1.68733
159.50 1.69520
160.00 1.70361
160.50 1.70944
161.00 1.71435
161.50 1.71935
162.00 1.72442
162.50 1.72958
163.00 1.73481
163.50 1.73929
164.00 1.74378
164.50 1.74834
165.00 1.75202
165.50 1.75514
166.00 1.75834
166.50 1.76163
167.00 1.76264
167.50 1.76346
168.00 1.76436
168.50 1.76543
169.00 1.76779
169.50 1.77025
170.00 1.77003
170.50 1.76956
171.00 1.76919
171.50 1.76894
172.00 1.76887
172.50 1.76903
173.00 1.76894
173.50 1.76804
174.00 1.76725
174.50 1.76658
175.00 1.76589
175.50 1.76523
176.00 1.76469
176.50 1.76428
177.00 1.76398
177.50 1.76384
178.00 1.76373
178.50 1.76376
179.00 1.76391
179.50 1.76419
180.00 1.76459
180.00 1.76459
180.50 1.76419
181.00 1.76391
181.50 1.76376
182.00 1.76373
182.50 1.76384
183.00 1.76398
183.50 1.76428
184.00 1.76469
184.50 1.76523
185.00 1.76589
185.50 1.76658
186.00 1.76725
186.50 1.76804
187.00 1.76894
187.50 1.76903
188.00 1.76887
188.50 1.76894
189.00 1.76919
189.50 1.76956
190.00 1.77003
190.50 1.77025
191.00 1.76779
191.50 1.76543
192.00 1.76436
192.50 1.76346
193.00 1.76264
193.50 1.76163
194.00 1.75834
194.50 1.75514
195.00 1.75202
195.50 1.74834
196.00 1.74378
196.50 1.73929
197.00 1.73481
197.50 1.72958
198.00 1.72442
198.50 1.71935
199.00 1.71435
199.50 1.70944
200.00 1.70361
200.50 1.69520
201.00 1.68733
201.50 1.67956
202.00 1.67185
202.50 1.66419
203.00 1.65659
203.50 1.64905
204.00 1.63658
204.50 1.62374
205.00 1.61090
205.50 1.59802
206.00 1.58518
206.50 1.57238
207.00 1.55962
207.50 1.54691
208.00 1.53042
208.50 1.51340
209.00 1.49642
209.50 1.48048
210.00 1.46596
210.50 1.45147
211.00 1.43698
211.50 1.42162
212.00 1.40453
212.50 1.38746
213.00 1.37040
213.50 1.35143
214.00 1.33146
214.50 1.31149
215.00 1.29152
215.50 1.27240
216.00 1.25337
216.50 1.23434
217.00 1.21327
217.50 1.19166
218.00 1.17004
218.50 1.14843
219.00 1.12630
219.50 1.10489
220.00 1.08369
220.50 1.06249
221.00 1.04128
221.50 1.01871
222.00 0.99708
222.50 0.97658
223.00 0.95607
223.50 0.93515
224.00 0.91415
224.50 0.89314
225.00 0.87168
225.50 0.85010
226.00 0.82983
226.50 0.80951
227.00 0.78918
227.50 0.76897
228.00 0.74872
228.50 0.72812
229.00 0.70672
229.50 0.68698
230.00 0.66719
230.50 0.64736
231.00 0.62748
231.50 0.60629
232.00 0.58610
232.50 0.56698
233.00 0.54779
233.50 0.52853
234.00 0.51009
234.50 0.49204
235.00 0.47392
235.50 0.45472
236.00 0.43468
236.50 0.41457
237.00 0.39490
237.50 0.37526
238.00 0.35554
238.50 0.33576
239.00 0.31591
239.50 0.29889
240.00 0.28224
240.50 0.26553
241.00 0.24818
241.50 0.23045
242.00 0.21268
242.50 0.19488
243.00 0.17916
243.50 0.16574
244.00 0.15229
244.50 0.13880
245.00 0.12611
245.50 0.11570
246.00 0.10659
246.50 0.09843
247.00 0.09025
247.50 0.08207
248.00 0.07387
248.50 0.06783
249.00 0.06301
249.50 0.05820
250.00 0.05339
250.50 0.04861
251.00 0.04421
251.50 0.03982
252.00 0.03542
252.50 0.03212
253.00 0.02995
253.50 0.02778
254.00 0.02561
254.50 0.02347
255.00 0.02132
255.50 0.01918
256.00 0.01704
256.50 0.01556
257.00 0.01440
257.50 0.01325
258.00 0.01209
258.50 0.01102
259.00 0.01011
259.50 0.00920
260.00 0.00830
260.50 0.00764
261.00 0.00705
261.50 0.00646
262.00 0.00592
262.50 0.00549
263.00 0.00506
263.50 0.00464
264.00 0.00426
264.50 0.00396
265.00 0.00366
265.50 0.00349
266.00 0.00332
266.50 0.00315
267.00 0.00298
267.50 0.00281
268.00 0.00271
268.50 0.00264
269.00 0.00256
269.50 0.00249
270.00 0.00241
270.00 0.00241
270.50 0.00249
271.00 0.00256
271.50 0.00264
272.00 0.00271
272.50 0.00281
273.00 0.00298
273.50 0.00315
274.00 0.00332
274.50 0.00349
275.00 0.00366
275.50 0.00396
276.00 0.00426
276.50 0.00464
277.00 0.00506
277.50 0.00549
278.00 0.00592
278.50 0.00646
279.00 0.00705
279.50 0.00764
280.00 0.00830
280.50 0.00920
281.00 0.01011
281.50 0.01102
282.00 0.01209
282.50 0.01325
283.00 0.01440
283.50 0.01556
284.00 0.01704
284.50 0.01918
285.00 0.02132
285.50 0.02347
286.00 0.02561
286.50 0.02778
287.00 0.02995
287.50 0.03212
288.00 0.03542
288.50 0.03982
289.00 0.04421
289.50 0.04861
290.00 0.05339
290.50 0.05820
291.00 0.06301
291.50 0.06783
292.00 0.07387
292.50 0.08207
293.00 0.09025
293.50 0.09843
294.00 0.10659
294.50 0.11570
295.00 0.12611
295.50 0.13880
296.00 0.15229
296.50 0.16574
297.00 0.17916
297.50 0.19488
298.00 0.21268
298.50 0.23045
299.00 0.24818
299.50 0.26553
300.00 0.28224
300.50 0.29889
301.00 0.31591
301.50 0.33576
302.00 0.35554
302.50 0.37526
303.00 0.39490
303.50 0.41457
304.00 0.43468
304.50 0.45472
305.00 0.47392
305.50 0.49204
306.00 0.51009
306.50 0.52853
307.00 0.54779
307.50 0.56698
308.00 0.58610
308.50 0.60629
309.00 0.62748
309.50 0.64736
310.00 0.66719
310.50 0.68698
311.00 0.70672
311.50 0.72812
312.00 0.74872
312.50 0.76897
313.00 0.78918
313.50 0.80951
314.00 0.82983
314.50 0.85010
315.00 0.87168
315.50 0.89314
316.00 0.91415
316.50 0.93515
317.00 0.95607
317.50 0.97658
318.00 0.99708
318.50 1.01871
319.00 1.04128
319.50 1.06249
320.00 1.08369
320.50 1.10489
321.00 1.12630
321.50 1.14843
322.00 1.17004
322.50 1.19166
323.00 1.21327
323.50 1.23434
324.00 1.25337
324.50 1.27240
325.00 1.29152
325.50 1.31149
326.00 1.33146
326.50 1.35143
327.00 1.37040
327.50 1.38746
328.00 1.40453
328.50 1.42162
329.00 1.43698
329.50 1.45147
330.00 1.46596
330.50 1.48048
331.00 1.49642
331.50 1.51340
332.00 1.53042
332.50 1.54691
333.00 1.55962
333.50 1.57238
334.00 1.58518
334.50 1.59802
335.00 1.61090
335.50 1.62374
336.00 1.63658
336.50 1.64905
337.00 1.65659
337.50 1.66419
338.00 1.67185
338.50 1.67956
339.00 1.68733
339.50 1.69520
340.00 1.70361
340.50 1.70944
341.00 1.71435
341.50 1.71935
342.00 1.72442
342.50 1.72958
343.00 1.73481
343.50 1.73929
344.00 1.74378
344.50 1.74834
345.00 1.75202
345.50 1.75514
346.00 1.75834
346.50 1.76163
347.00 1.76264
347.50 1.76346
348.00 1.76436
348.50 1.76543
349.00 1.76779
349.50 1.77025
350.00 1.77003
350.50 1.76956
351.00 1.76919
351.50 1.76894
352.00 1.76887
352.50 1.76903
353.00 1.76894
353.50 1.76804
354.00 1.76725
354.50 1.76658
355.00 1.76589
355.50 1.76523
356.00 1.76469
356.50 1.76428
357.00 1.76398
357.50 1.76384
358.00 1.76373
358.50 1.76376
359.00 1.76391
359.50 1.76419
360.00 1.76459
