phi[deg] B[T]
0.00 2.03063
0.50 2.02975
1.00 2.02901
1.50 2.02841
2.00 2.02794
2.50 2.02761
3.00 2.02776
3.50 2.02674
4.00 2.02587
4.50 2.02556
5.00 2.02542
5.50 2.02541
6.00 2.02553
6.50 2.02586
7.00 2.02506
7.50 2.02425
8.00 2.02378
8.50 2.02361
9.00 2.02358
9.50 2.02368
10.00 2.02133
10.50 2.01804
11.00 2.01528
11.50 2.01418
12.00 2.01318
12.50 2.01228
13.00 2.01148
13.50 2.00964
14.00 2.00686
14.50 2.00419
15.00 2.00162
15.50 1.99682
16.00 1.99147
16.50 1.98620
17.00 1.98119
17.50 1.97661
18.00 1.97210
18.50 1.96767
19.00 1.96332
19.50 1.95638
20.00 1.94622
20.50 1.93612
21.00 1.92719
21.50 1.92003
22.00 1.91289
22.50 1.90579
23.00 1.89668
23.50 1.88296
24.00 1.86927
24.50 1.85561
25.00 1.84027
25.50 1.82450
26.00 1.80876
26.50 1.79309
27.00 1.77742
27.50 1.76178
28.00 1.74388
28.50 1.72464
29.00 1.70542
29.50 1.68621
30.00 1.66543
30.50 1.64460
31.00 1.62513
31.50 1.60575
32.00 1.58637
32.50 1.56616
33.00 1.54287
33.50 1.51958
34.00 1.49629
34.50 1.47300
35.00 1.44858
35.50 1.42402
36.00 1.39957
36.50 1.37512
37.00 1.35066
37.50 1.32455
38.00 1.29859
38.50 1.27346
39.00 1.24831
39.50 1.22285
40.00 1.19654
40.50 1.17144
41.00 1.14636
41.50 1.12086
42.00 1.09428
42.50 1.06920
43.00 1.04488
43.50 1.02008
44.00 0.99493
44.50 0.96975
45.00 0.94443
45.50 0.91959
46.00 0.89539
46.50 0.87113
47.00 0.84682
47.50 0.82256
48.00 0.79824
48.50 0.77365
49.00 0.74842
49.50 0.72475
50.00 0.70126
50.50 0.67770
51.00 0.65458
51.50 0.63164
52.00 0.60865
52.50 0.58561
53.00 0.56230
53.50 0.53940
54.00 0.51739
54.50 0.49532
55.00 0.47361
55.50 0.45216
56.00 0.43080
56.50 0.41109
57.00 0.39230
57.50 0.37346
58.00 0.35455
58.50 0.33559
59.00 0.31638
59.50 0.29708
60.00 0.27772
60.50 0.25831
61.00 0.23885
61.50 0.22176
62.00 0.20751
62.50 0.19324
63.00 0.17895
63.50 0.16465
64.00 0.15168
64.50 0.14158
65.00 0.13146
65.50 0.12134
66.00 0.11120
66.50 0.10078
67.00 0.09166
67.50 0.08562
68.00 0.07964
68.50 0.07367
69.00 0.06770
69.50 0.06174
70.00 0.05577
70.50 0.04982
71.00 0.04605
71.50 0.04302
72.00 0.03999
72.50 0.03696
73.00 0.03393
73.50 0.03091
74.00 0.02790
74.50 0.02494
75.00 0.02316
75.50 0.02157
76.00 0.01997
76.50 0.01834
77.00 0.01672
77.50 0.01510
78.00 0.01379
78.50 0.01290
79.00 0.01202
79.50 0.01112
80.00 0.01022
80.50 0.00932
81.00 0.00849
81.50 0.00788
82.00 0.00742
82.50 0.00697
83.00 0.00652
83.50 0.00606
84.00 0.00558
84.50 0.00510
85.00 0.00484
85.50 0.00462
86.00 0.00438
86.50 0.00415
87.00 0.00391
87.50 0.00375
88.00 0.00368
88.50 0.00360
89.00 0.00351
89.50 0.00342
90.00 0.00333
90.00 0.00333
90.50 0.00342
91.00 0.00351
91.50 0.00360
92.00 0.00368
92.50 0.00375
93.00 0.00391
93.50 0.00415
94.00 0.00438
94.50 0.00462
95.00 0.00484
95.50 0.00510
96.00 0.00558
96.50 0.00606
97.00 0.00652
97.50 0.00697
98.00 0.00742
98.50 0.00788
99.00 0.00849
99.50 0.00932
100.00 0.01022
100.50 0.01112
101.00 0.01202
101.50 0.01290
102.00 0.01379
102.50 0.01510
103.00 0.01672
103.50 0.01834
104.00 0.01997
104.50 0.02157
105.00 0.02316
105.50 0.02494
106.00 0.02790
106.50 0.03091
107.00 0.03393
107.50 0.03696
108.00 0.03999
108.50 0.04302
109.00 0.04605
109.50 0.04982
110.00 0.05577
110.50 0.06174
111.00 0.06770
111.50 0.07367
112.00 0.07964
112.50 0.08562
113.00 0.09166
113.50 0.10078
114.00 0.11120
114.50 0.12134
115.00 0.13146
115.50 0.14158
116.00 0.15168
116.50 0.16465
117.00 0.17895
117.50 0.19324
118.00 0.20751
118.50 0.22176
119.00 0.23885
119.50 0.25831
120.00 0.27772
120.50 0.29708
121.00 0.31638
121.50 0.33559
122.00 0.35455
122.50 0.37346
123.00 0.39230
123.50 0.41109
124.00 0.43080
124.50 0.45216
125.00 0.47361
125.50 0.49532
126.00 0.51739
126.50 0.53940
127.00 0.56230
127.50 0.58561
128.00 0.60865
128.50 0.63164
129.00 0.65458
129.50 0.67770
130.00 0.70126
130.50 0.72475
131.00 0.74842
131.50 0.77365
132.00 0.79824
132.50 0.82256
133.00 0.84682
133.50 0.87113
134.00 0.89539
134.50 0.91959
135.00 0.94443
135.50 0.96975
136.00 0.99493
136.50 1.02008
137.00 1.04488
137.50 1.06920
138.00 1.09428
138.50 1.12086
139.00 1.14636
139.50 1.17144
140.00 1.19654
140.50 1.22285
141.00 1.24831
141.50 1.27346
142.00 1.29859
142.50 1.32455
143.00 1.35066
143.50 1.37512
144.00 1.39957
144.50 1.42402
145.00 1.44858
145.50 1.47300
146.00 1.49629
146.50 1.51958
147.00 1.54287
147.50 1.56616
148.00 1.58637
148.50 1.60575
149.00 1.62513
149.50 1.64460
150.00 1.66543
150.50 1.68621
151.00 1.70542
151.50 1.72464
152.00 1.74388
152.50 1.76178
153.00 1.77742
153.50 1.79309
154.00 1.80876
154.50 1.82450
155.00 1.84027
155.50 1.85561
156.00 1.86927
156.50 1.88296
157.00 1.89668
157.50 1.90579
158.00 1.91289
158.50 1.92003
159.00 1.92719
159.50 1.93612
160.00 1.94622
160.50 1.95638
161.00 1.96332
161.50 1.96767
162.00 1.97210
162.50 1.97661
163.00 1.98119
163.50 1.98620
164.00 1.99147
164.50 1.99682
165.00 2.00162
165.50 2.00419
166.00 2.00686
166.50 2.00964
167.00 2.01148
167.50 2.01228
168.00 2.01318
168.50 2.01418
169.00 2.01528
169.50 2.01804
170.00 2.02133
170.50 2.02368
171.00 2.02358
171.50 2.02361
172.00 2.02378
172.50 2.02425
173.00 2.02506
173.50 2.02586
174.00 2.02553
174.50 2.02541
175.00 2.02542
175.50 2.02556
176.00 2.02587
176.50 2.02674
177.00 2.02776
177.50 2.02761
178.00 2.02794
178.50 2.02841
179.00 2.02901
179.50 2.02975
180.00 2.03063
180.00 2.03063
180.50 2.02975
181.00 2.02901
181.50 2.02841
182.00 2.02794
182.50 2.02761
183.00 2.02776
183.50 2.02674
184.00 2.02587
184.50 2.02556
185.00 2.02542
185.50 2.02541
186.00 2.02553
186.50 2.02586
187.00 2.02506
187.50 2.02425
188.00 2.02378
188.50 2.02361
189.00 2.02358
189.50 2.02368
190.00 2.02133
190.50 2.01804
191.00 2.01528
191.50 2.01418
192.00 2.01318
192.50 2.01228
193.00 2.01148
193.50 2.00964
194.00 2.00686
194.50 2.00419
195.00 2.00162
195.50 1.99682
196.00 1.99147
196.50 1.98620
197.00 1.98119
197.50 1.97661
198.00 1.97210
198.50 1.96767
199.00 1.96332
199.50 1.95638
200.00 1.94622
200.50 1.93612
201.00 1.92719
201.50 1.92003
202.00 1.91289
202.50 1.90579
203.00 1.89668
203.50 1.88296
204.00 1.86927
204.50 1.85561
205.00 1.84027
205.50 1.82450
206.00 1.80876
206.50 1.79309
207.00 1.77742
207.50 1.76178
208.00 1.74388
208.50 1.72464
209.00 1.70542
209.50 1.68621
210.00 1.66543
210.50 1.64460
211.00 1.62513
211.50 1.60575
212.00 1.58637
212.50 1.56616
213.00 1.54287
213.50 1.51958
214.00 1.49629
214.50 1.47300
215.00 1.44858
215.50 1.42402
216.00 1.39957
216.50 1.37512
217.00 1.35066
217.50 1.32455
218.00 1.29859
218.50 1.27346
219.00 1.24831
219.50 1.22285
220.00 1.19654
220.50 1.17144
221.00 1.14636
221.50 1.12086
222.00 1.09428
222.50 1.06920
223.00 1.04488
223.50 1.02008
224.00 0.99493
224.50 0.96975
225.00 0.94443
225.50 0.91959
226.00 0.89539
226.50 0.87113
227.00 0.84682
227.50 0.82256
228.00 0.79824
228.50 0.77365
229.00 0.74842
229.50 0.72475
230.00 0.70126
230.50 0.67770
231.00 0.65458
231.50 0.63164
232.00 0.60865
232.50 0.58561
233.00 0.56230
233.50 0.53940
234.00 0.51739
234.50 0.49532
235.00 0.47361
235.50 0.45216
236.00 0.43080
236.50 0.41109
237.00 0.39230
237.50 0.37346
238.00 0.35455
238.50 0.33559
239.00 0.31638
239.50 0.29708
240.00 0.27772
240.50 0.25831
241.00 0.23885
241.50 0.22176
242.00 0.20751
242.50 0.19324
243.00 0.17895
243.50 0.16465
244.00 0.15168
244.50 0.14158
245.00 0.13146
245.50 0.12134
246.00 0.11120
246.50 0.10078
247.00 0.09166
247.50 0.08562
248.00 0.07964
248.50 0.07367
249.00 0.06770
249.50 0.06174
250.00 0.05577
250.50 0.04982
251.00 0.04605
251.50 0.04302
252.00 0.03999
252.50 0.03696
253.00 0.03393
253.50 0.03091
254.00 0.02790
254.50 0.02494
255.00 0.02316
255.50 0.02157
256.00 0.01997
256.50 0.01834
257.00 0.01672
257.50 0.01510
258.00 0.01379
258.50 0.01290
259.00 0.01202
259.50 0.01112
260.00 0.01022
260.50 0.00932
261.00 0.00849
261.50 0.00788
262.00 0.00742
262.50 0.00697
263.00 0.00652
263.50 0.00606
264.00 0.00558
264.50 0.00510
265.00 0.00484
265.50 0.00462
266.00 0.00438
266.50 0.00415
267.00 0.00391
267.50 0.00375
268.00 0.00368
268.50 0.00360
269.00 0.00351
269.50 0.00342
270.00 0.00333
270.00 0.00333
270.50 0.00342
271.00 0.00351
271.50 0.00360
272.00 0.00368
272.50 0.00375
273.00 0.00391
273.50 0.00415
274.00 0.00438
274.50 0.00462
275.00 0.00484
275.50 0.00510
276.00 0.00558
276.50 0.00606
277.00 0.00652
277.50 0.00697
278.00 0.00742
278.50 0.00788
279.00 0.00849
279.50 0.00932
280.00 0.01022
280.50 0.01112
281.00 0.01202
281.50 0.01290
282.00 0.01379
282.50 0.01510
283.00 0.01672
283.50 0.01834
284.00 0.01997
284.50 0.02157
285.00 0.02316
285.50 0.02494
286.00 0.02790
286.50 0.03091
287.00 0.03393
287.50 0.03696
288.00 0.03999
288.50 0.04302
289.00 0.04605
289.50 0.04982
290.00 0.05577
290.50 0.06174
291.00 0.06770
291.50 0.07367
292.00 0.07964
292.50 0.08562
293.00 0.09166
293.50 0.10078
294.00 0.11120
294.50 0.12134
295.00 0.13146
295.50 0.14158
296.00 0.15168
296.50 0.16465
297.00 0.17895
297.50 0.19324
298.00 0.20751
298.50 0.22176
299.00 0.23885
299.50 0.25831
300.00 0.27772
300.50 0.29708
301.00 0.31638
301.50 0.33559
302.00 0.35455
302.50 0.37346
303.00 0.39230
303.50 0.41109
304.00 0.43080
304.50 0.45216
305.00 0.47361
305.50 0.49532
306.00 0.51739
306.50 0.53940
307.00 0.56230
307.50 0.58561
308.00 0.60865
308.50 0.63164
309.00 0.65458
309.50 0.67770
310.00 0.70126
310.50 0.72475
311.00 0.74842
311.50 0.77365
312.00 0.79824
312.50 0.82256
313.00 0.84682
313.50 0.87113
314.00 0.89539
314.50 0.91959
315.00 0.94443
315.50 0.96975
316.00 0.99493
316.50 1.02008
317.00 1.04488
317.50 1.06920
318.00 1.09428
318.50 1.12086
319.00 1.14636
319.50 1.17144
320.00 1.19654
320.50 1.22285
321.00 1.24831
321.50 1.27346
322.00 1.29859
322.50 1.32455
323.00 1.35066
323.50 1.37512
324.00 1.39957
324.50 1.42402
325.00 1.44858
325.50 1.47300
326.00 1.49629
326.50 1.51958
327.00 1.54287
327.50 1.56616
328.00 1.58637
328.50 1.60575
329.00 1.62513
329.50 1.64460
330.00 1.66543
330.50 1.68621
331.00 1.70542
331.50 1.72464
332.00 1.74388
332.50 1.76178
333.00 1.77742
333.50 1.79309
334.00 1.80876
334.50 1.82450
335.00 1.84027
335.50 1.85561
336.00 1.86927
336.50 1.88296
337.00 1.89668
337.50 1.90579
338.00 1.91289
338.50 1.92003
339.00 1.92719
339.50 1.93612
340.00 1.94622
340.50 1.95638
341.00 1.96332
341.50 1.96767
342.00 1.97210
342.50 1.97661
343.00 1.98119
343.50 1.98620
344.00 1.99147
344.50 1.99682
345.00 2.00162
345.50 2.00419
346.00 2.00686
346.50 2.00964
347.00 2.01148
347.50 2.01228
348.00 2.01318
348.50 2.01418
349.00 2.01528
349.50 2.01804
350.00 2.02133
350.50 2.02368
351.00 2.02358
351.50 2.02361
352.00 2.02378
352.50 2.02425
353.00 2.02506
353.50 2.02586
354.00 2.02553
354.50 2.02541
355.00 2.02542
355.50 2.02556
356.00 2.02587
356.50 2.02674
357.00 2.02776
357.50 2.02761
358.00 2.02794
358.50 2.02841
359.00 2.02901
359.50 2.02975
360.00 2.03063
