phi[deg] B[T]
0.00 1.52162
0.50 1.52154
1.00 1.52158
1.50 1.52174
2.00 1.52202
2.50 1.52242
3.00 1.52308
3.50 1.52386
4.00 1.52475
4.50 1.52575
5.00 1.52687
5.50 1.52830
6.00 1.52993
6.50 1.53167
7.00 1.53325
7.50 1.53403
8.00 1.53491
8.50 1.53613
9.00 1.53747
9.50 1.53892
10.00 1.54047
10.50 1.53953
11.00 1.53925
11.50 1.53973
12.00 1.54029
12.50 1.54093
13.00 1.54031
13.50 1.53842
14.00 1.53661
14.50 1.53473
15.00 1.53141
15.50 1.52816
16.00 1.52498
16.50 1.52214
17.00 1.51958
17.50 1.51709
18.00 1.51371
18.50 1.50963
19.00 1.50562
19.50 1.50147
20.00 1.49550
20.50 1.48958
21.00 1.48352
21.50 1.47734
22.00 1.47122
22.50 1.46514
23.00 1.45731
23.50 1.44630
24.00 1.43531
24.50 1.42456
25.00 1.41467
25.50 1.40481
26.00 1.39498
26.50 1.38353
27.00 1.36964
27.50 1.35578
28.00 1.34186
28.50 1.32716
29.00 1.31250
29.50 1.29785
30.00 1.28390
30.50 1.27041
31.00 1.25694
31.50 1.24326
32.00 1.22810
32.50 1.21296
33.00 1.19786
33.50 1.18072
34.00 1.16318
34.50 1.14565
35.00 1.12865
35.50 1.11272
36.00 1.09679
36.50 1.07940
37.00 1.06149
37.50 1.04280
38.00 1.02411
38.50 1.00543
39.00 0.98673
39.50 0.96805
40.00 0.95001
40.50 0.93198
41.00 0.91395
41.50 0.89547
42.00 0.87675
42.50 0.85956
43.00 0.84236
43.50 0.82490
44.00 0.80723
44.50 0.78954
45.00 0.77161
45.50 0.75376
46.00 0.73650
46.50 0.71921
47.00 0.70189
47.50 0.68454
48.00 0.66717
48.50 0.64880
49.00 0.63047
49.50 0.61323
50.00 0.59594
50.50 0.57861
51.00 0.56002
51.50 0.54078
52.00 0.52319
52.50 0.50663
53.00 0.48999
53.50 0.47325
54.00 0.45633
54.50 0.43935
55.00 0.42215
55.50 0.40397
56.00 0.38572
56.50 0.36739
57.00 0.34899
57.50 0.33163
58.00 0.31447
58.50 0.29723
59.00 0.27856
59.50 0.25958
60.00 0.24053
60.50 0.22574
61.00 0.21098
61.50 0.19619
62.00 0.18137
62.50 0.16673
63.00 0.15318
63.50 0.13959
64.00 0.12596
64.50 0.11230
65.00 0.10331
65.50 0.09480
66.00 0.08629
66.50 0.07779
67.00 0.07108
67.50 0.06469
68.00 0.05828
68.50 0.05187
69.00 0.04753
69.50 0.04380
70.00 0.04007
70.50 0.03635
71.00 0.03264
71.50 0.02931
72.00 0.02619
72.50 0.02308
73.00 0.02141
73.50 0.01981
74.00 0.01821
74.50 0.01662
75.00 0.01504
75.50 0.01346
76.00 0.01188
76.50 0.01059
77.00 0.00978
77.50 0.00896
78.00 0.00813
78.50 0.00737
79.00 0.00672
79.50 0.00608
80.00 0.00544
80.50 0.00492
81.00 0.00452
81.50 0.00412
82.00 0.00372
82.50 0.00341
83.00 0.00314
83.50 0.00287
84.00 0.00260
84.50 0.00240
85.00 0.00221
85.50 0.00205
86.00 0.00195
86.50 0.00184
87.00 0.00173
87.50 0.00162
88.00 0.00155
88.50 0.00150
89.00 0.00146
89.50 0.00141
90.00 0.00137
90.00 0.00137
90.50 0.00141
91.00 0.00146
91.50 0.00150
92.00 0.00155
92.50 0.00162
93.00 0.00173
93.50 0.00184
94.00 0.00195
94.50 0.00205
95.00 0.00221
95.50 0.00240
96.00 0.00260
96.50 0.00287
97.00 0.00314
97.50 0.00341
98.00 0.00372
98.50 0.00412
99.00 0.00452
99.50 0.00492
100.00 0.00544
100.50 0.00608
101.00 0.00672
101.50 0.00737
102.00 0.00813
102.50 0.00896
103.00 0.00978
103.50 0.01059
104.00 0.01188
104.50 0.01346
105.00 0.01504
105.50 0.01662
106.00 0.01821
106.50 0.01981
107.00 0.02141
107.50 0.02308
108.00 0.02619
108.50 0.02931
109.00 0.03264
109.50 0.03635
110.00 0.04007
110.50 0.04380
111.00 0.04753
111.50 0.05187
112.00 0.05828
112.50 0.06469
113.00 0.07108
113.50 0.07779
114.00 0.08629
114.50 0.09480
115.00 0.10331
115.50 0.11230
116.00 0.12596
116.50 0.13959
117.00 0.15318
117.50 0.16673
118.00 0.18137
118.50 0.19619
119.00 0.21098
119.50 0.22574
120.00 0.24053
120.50 0.25958
121.00 0.27856
121.50 0.29723
122.00 0.31447
122.50 0.33163
123.00 0.34899
123.50 0.36739
124.00 0.38572
124.50 0.40397
125.00 0.42215
125.50 0.43935
126.00 0.45633
126.50 0.47325
127.00 0.48999
127.50 0.50663
128.00 0.52319
128.50 0.54078
129.00 0.56002
129.50 0.57861
130.00 0.59594
130.50 0.61323
131.00 0.63047
131.50 0.64880
132.00 0.66717
132.50 0.68454
133.00 0.70189
133.50 0.71921
134.00 0.73650
134.50 0.75376
135.00 0.77161
135.50 0.78954
136.00 0.80723
136.50 0.82490
137.00 0.84236
137.50 0.85956
138.00 0.87675
138.50 0.89547
139.00 0.91395
139.50 0.93198
140.00 0.95001
140.50 0.96805
141.00 0.98673
141.50 1.00543
142.00 1.02411
142.50 1.04280
143.00 1.06149
143.50 1.07940
144.00 1.09679
144.50 1.11272
145.00 1.12865
145.50 1.14565
146.00 1.16318
146.50 1.18072
147.00 1.19786
147.50 1.21296
148.00 1.22810
148.50 1.24326
149.00 1.25694
149.50 1.27041
150.00 1.28390
150.50 1.29785
151.00 1.31250
151.50 1.32716
152.00 1.34186
152.50 1.35578
153.00 1.36964
153.50 1.38353
154.00 1.39498
154.50 1.40481
155.00 1.41467
155.50 1.42456
156.00 1.43531
156.50 1.44630
157.00 1.45731
157.50 1.46514
158.00 1.47122
158.50 1.47734
159.00 1.48352
159.50 1.48958
160.00 1.49550
160.50 1.50147
161.00 1.50562
161.50 1.50963
162.00 1.51371
162.50 1.51709
163.00 1.51958
163.50 1.52214
164.00 1.52498
164.50 1.52816
165.00 1.53141
165.50 1.53473
166.00 1.53661
166.50 1.53842
167.00 1.54031
167.50 1.54093
168.00 1.54029
168.50 1.53973
169.00 1.53925
169.50 1.53953
170.00 1.54047
170.50 1.53892
171.00 1.53747
171.50 1.53613
172.00 1.53491
172.50 1.53403
173.00 1.53325
173.50 1.53167
174.00 1.52993
174.50 1.52830
175.00 1.52687
175.50 1.52575
176.00 1.52475
176.50 1.52386
177.00 1.52308
177.50 1.52242
178.00 1.52202
178.50 1.52174
179.00 1.52158
179.50 1.52154
180.00 1.52162
180.00 1.52162
180.50 1.52154
181.00 1.52158
181.50 1.52174
182.00 1.52202
182.50 1.52242
183.00 1.52308
183.50 1.52386
184.00 1.52475
184.50 1.52575
185.00 1.52687
185.50 1.52830
186.00 1.52993
186.50 1.53167
187.00 1.53325
187.50 1.53403
188.00 1.53491
188.50 1.53613
189.00 1.53747
189.50 1.53892
190.00 1.54047
190.50 1.53953
191.00 1.53925
191.50 1.53973
192.00 1.54029
192.50 1.54093
193.00 1.54031
193.50 1.53842
194.00 1.53661
194.50 1.53473
195.00 1.53141
195.50 1.52816
196.00 1.52498
196.50 1.52214
197.00 1.51958
197.50 1.51709
198.00 1.51371
198.50 1.50963
199.00 1.50562
199.50 1.50147
200.00 1.49550
200.50 1.48958
201.00 1.48352
201.50 1.47734
202.00 1.47122
202.50 1.46514
203.00 1.45731
203.50 1.44630
204.00 1.43531
204.50 1.42456
205.00 1.41467
205.50 1.40481
206.00 1.39498
206.50 1.38353
207.00 1.36964
207.50 1.35578
208.00 1.34186
208.50 1.32716
209.00 1.31250
209.50 1.29785
210.00 1.28390
210.50 1.27041
211.00 1.25694
211.50 1.24326
212.00 1.22810
212.50 1.21296
213.00 1.19786
213.50 1.18072
214.00 1.16318
214.50 1.14565
215.00 1.12865
215.50 1.11272
216.00 1.09679
216.50 1.07940
217.00 1.06149
217.50 1.04280
218.00 1.02411
218.50 1.00543
219.00 0.98673
219.50 0.96805
220.00 0.95001
220.50 0.93198
221.00 0.91395
221.50 0.89547
222.00 0.87675
222.50 0.85956
223.00 0.84236
223.50 0.82490
224.00 0.80723
224.50 0.78954
225.00 0.77161
225.50 0.75376
226.00 0.73650
226.50 0.71921
227.00 0.70189
227.50 0.68454
228.00 0.66717
228.50 0.64880
229.00 0.63047
229.50 0.61323
230.00 0.59594
230.50 0.57861
231.00 0.56002
231.50 0.54078
232.00 0.52319
232.50 0.50663
233.00 0.48999
233.50 0.47325
234.00 0.45633
234.50 0.43935
235.00 0.42215
235.50 0.40397
236.00 0.38572
236.50 0.36739
237.00 0.34899
237.50 0.33163
238.00 0.31447
238.50 0.29723
239.00 0.27856
239.50 0.25958
240.00 0.24053
240.50 0.22574
241.00 0.21098
241.50 0.19619
242.00 0.18137
242.50 0.16673
243.00 0.15318
243.50 0.13959
244.00 0.12596
244.50 0.11230
245.00 0.10331
245.50 0.09480
246.00 0.08629
246.50 0.07779
247.00 0.07108
247.50 0.06469
248.00 0.05828
248.50 0.05187
249.00 0.04753
249.50 0.04380
250.00 0.04007
250.50 0.03635
251.00 0.03264
251.50 0.02931
252.00 0.02619
252.50 0.02308
253.00 0.02141
253.50 0.01981
254.00 0.01821
254.50 0.01662
255.00 0.01504
255.50 0.01346
256.00 0.01188
256.50 0.01059
257.00 0.00978
257.50 0.00896
258.00 0.00813
258.50 0.00737
259.00 0.00672
259.50 0.00608
260.00 0.00544
260.50 0.00492
261.00 0.00452
261.50 0.00412
262.00 0.00372
262.50 0.00341
263.00 0.00314
263.50 0.00287
264.00 0.00260
264.50 0.00240
265.00 0.00221
265.50 0.00205
266.00 0.00195
266.50 0.00184
267.00 0.00173
267.50 0.00162
268.00 0.00155
268.50 0.00150
269.00 0.00146
269.50 0.00141
270.00 0.00137
270.00 0.00137
270.50 0.00141
271.00 0.00146
271.50 0.00150
272.00 0.00155
272.50 0.00162
273.00 0.00173
273.50 0.00184
274.00 0.00195
274.50 0.00205
275.00 0.00221
275.50 0.00240
276.00 0.00260
276.50 0.00287
277.00 0.00314
277.50 0.00341
278.00 0.00372
278.50 0.00412
279.00 0.00452
279.50 0.00492
280.00 0.00544
280.50 0.00608
281.00 0.00672
281.50 0.00737
282.00 0.00813
282.50 0.00896
283.00 0.00978
283.50 0.01059
284.00 0.01188
284.50 0.01346
285.00 0.01504
285.50 0.01662
286.00 0.01821
286.50 0.01981
287.00 0.02141
287.50 0.02308
288.00 0.02619
288.50 0.02931
289.00 0.03264
289.50 0.03635
290.00 0.04007
290.50 0.04380
291.00 0.04753
291.50 0.05187
292.00 0.05828
292.50 0.06469
293.00 0.07108
293.50 0.07779
294.00 0.08629
294.50 0.09480
295.00 0.10331
295.50 0.11230
296.00 0.12596
296.50 0.13959
297.00 0.15318
297.50 0.16673
298.00 0.18137
298.50 0.19619
299.00 0.21098
299.50 0.22574
300.00 0.24053
300.50 0.25958
301.00 0.27856
301.50 0.29723
302.00 0.31447
302.50 0.33163
303.00 0.34899
303.50 0.36739
304.00 0.38572
304.50 0.40397
305.00 0.42215
305.50 0.43935
306.00 0.45633
306.50 0.47325
307.00 0.48999
307.50 0.50663
308.00 0.52319
308.50 0.54078
309.00 0.56002
309.50 0.57861
310.00 0.59594
310.50 0.61323
311.00 0.63047
311.50 0.64880
312.00 0.66717
312.50 0.68454
313.00 0.70189
313.50 0.71921
314.00 0.73650
314.50 0.75376
315.00 0.77161
315.50 0.78954
316.00 0.80723
316.50 0.82490
317.00 0.84236
317.50 0.85956
318.00 0.87675
318.50 0.89547
319.00 0.91395
319.50 0.93198
320.00 0.95001
320.50 0.96805
321.00 0.98673
321.50 1.00543
322.00 1.02411
322.50 1.04280
323.00 1.06149
323.50 1.07940
324.00 1.09679
324.50 1.11272
325.00 1.12865
325.50 1.14565
326.00 1.16318
326.50 1.18072
327.00 1.19786
327.50 1.21296
328.00 1.22810
328.50 1.24326
329.00 1.25694
329.50 1.27041
330.00 1.28390
330.50 1.29785
331.00 1.31250
331.50 1.32716
332.00 1.34186
332.50 1.35578
333.00 1.36964
333.50 1.38353
334.00 1.39498
334.50 1.40481
335.00 1.41467
335.50 1.42456
336.00 1.43531
336.50 1.44630
337.00 1.45731
337.50 1.46514
338.00 1.47122
338.50 1.47734
339.00 1.48352
339.50 1.48958
340.00 1.49550
340.50 1.50147
341.00 1.50562
341.50 1.50963
342.00 1.51371
342.50 1.51709
343.00 1.51958
343.50 1.52214
344.00 1.52498
344.50 1.52816
345.00 1.53141
345.50 1.53473
346.00 1.53661
346.50 1.53842
347.00 1.54031
347.50 1.54093
348.00 1.54029
348.50 1.53973
349.00 1.53925
349.50 1.53953
350.00 1.54047
350.50 1.53892
351.00 1.53747
351.50 1.53613
352.00 1.53491
352.50 1.53403
353.00 1.53325
353.50 1.53167
354.00 1.52993
354.50 1.52830
355.00 1.52687
355.50 1.52575
356.00 1.52475
356.50 1.52386
357.00 1.52308
357.50 1.52242
358.00 1.52202
358.50 1.52174
359.00 1.52158
359.50 1.52154
360.00 1.52162
