phi[deg] B[T]
0.00 1.54379
0.50 1.54348
1.00 1.54329
1.50 1.54322
2.00 1.54327
2.50 1.54344
3.00 1.54374
3.50 1.54416
4.00 1.54471
4.50 1.54536
5.00 1.54614
5.50 1.54734
6.00 1.54886
6.50 1.55050
7.00 1.55175
7.50 1.55296
8.00 1.55429
8.50 1.55574
9.00 1.55835
9.50 1.56119
10.00 1.56321
10.50 1.56447
11.00 1.56517
11.50 1.56595
12.00 1.56682
12.50 1.56634
13.00 1.56534
13.50 1.56433
14.00 1.56265
14.50 1.56106
15.00 1.55956
15.50 1.55756
16.00 1.55553
16.50 1.55340
17.00 1.55021
17.50 1.54712
18.00 1.54411
18.50 1.54160
19.00 1.54031
19.50 1.53881
20.00 1.53711
20.50 1.53206
21.00 1.52705
21.50 1.52207
22.00 1.51706
22.50 1.51130
23.00 1.50557
23.50 1.49687
24.00 1.48549
24.50 1.47411
25.00 1.46274
25.50 1.44712
26.00 1.43145
26.50 1.41539
27.00 1.39839
27.50 1.38142
28.00 1.36449
28.50 1.34702
29.00 1.32896
29.50 1.31056
30.00 1.29230
30.50 1.27429
31.00 1.25634
31.50 1.23846
32.00 1.22066
32.50 1.20317
33.00 1.18574
33.50 1.16809
34.00 1.15039
34.50 1.13276
35.00 1.11520
35.50 1.09823
36.00 1.08232
36.50 1.06707
37.00 1.05205
37.50 1.03518
38.00 1.01835
38.50 1.00156
39.00 0.98670
39.50 0.97210
40.00 0.95584
40.50 0.93962
41.00 0.92258
41.50 0.90560
42.00 0.88881
42.50 0.87184
43.00 0.85368
43.50 0.83625
44.00 0.81803
44.50 0.79887
45.00 0.77979
45.50 0.76053
46.00 0.74129
46.50 0.72173
47.00 0.70195
47.50 0.68229
48.00 0.66324
48.50 0.64420
49.00 0.62598
49.50 0.60798
50.00 0.58997
50.50 0.57547
51.00 0.56158
51.50 0.54457
52.00 0.52638
52.50 0.50815
53.00 0.49005
53.50 0.47778
54.00 0.46543
54.50 0.45102
55.00 0.43561
55.50 0.41987
56.00 0.40000
56.50 0.38001
57.00 0.35990
57.50 0.33811
58.00 0.31616
58.50 0.29409
59.00 0.27255
59.50 0.25149
60.00 0.22999
60.50 0.20827
61.00 0.18647
61.50 0.16457
62.00 0.14588
62.50 0.13141
63.00 0.11661
63.50 0.10179
64.00 0.08695
64.50 0.07601
65.00 0.06769
65.50 0.05935
66.00 0.05110
66.50 0.04315
67.00 0.03852
67.50 0.03409
68.00 0.02967
68.50 0.02524
69.00 0.02166
69.50 0.01920
70.00 0.01675
70.50 0.01446
71.00 0.01228
71.50 0.01075
72.00 0.00959
72.50 0.00846
73.00 0.00734
73.50 0.00622
74.00 0.00532
74.50 0.00474
75.00 0.00417
75.50 0.00360
76.00 0.00316
76.50 0.00272
77.00 0.00237
77.50 0.00211
78.00 0.00186
78.50 0.00161
79.00 0.00140
79.50 0.00121
80.00 0.00109
80.50 0.00098
81.00 0.00087
81.50 0.00076
82.00 0.00066
82.50 0.00059
83.00 0.00054
83.50 0.00048
84.00 0.00043
84.50 0.00037
85.00 0.00034
85.50 0.00031
86.00 0.00027
86.50 0.00024
87.00 0.00022
87.50 0.00020
88.00 0.00019
88.50 0.00017
89.00 0.00017
89.50 0.00016
90.00 0.00015
90.00 0.00015
90.50 0.00016
91.00 0.00017
91.50 0.00017
92.00 0.00019
92.50 0.00020
93.00 0.00022
93.50 0.00024
94.00 0.00027
94.50 0.00031
95.00 0.00034
95.50 0.00037
96.00 0.00043
96.50 0.00048
97.00 0.00054
97.50 0.00059
98.00 0.00066
98.50 0.00076
99.00 0.00087
99.50 0.00098
100.00 0.00109
100.50 0.00121
101.00 0.00140
101.50 0.00161
102.00 0.00186
102.50 0.00211
103.00 0.00237
103.50 0.00272
104.00 0.00316
104.50 0.00360
105.00 0.00417
105.50 0.00474
106.00 0.00532
106.50 0.00622
107.00 0.00734
107.50 0.00846
108.00 0.00959
108.50 0.01075
109.00 0.01228
109.50 0.01446
110.00 0.01675
110.50 0.01920
111.00 0.02166
111.50 0.02524
112.00 0.02967
112.50 0.03409
113.00 0.03852
113.50 0.04315
114.00 0.05110
114.50 0.05935
115.00 0.06769
115.50 0.07601
116.00 0.08695
116.50 0.10179
117.00 0.11661
117.50 0.13141
118.00 0.14588
118.50 0.16457
119.00 0.18647
119.50 0.20827
120.00 0.22999
120.50 0.25149
121.00 0.27255
121.50 0.29409
122.00 0.31616
122.50 0.33811
123.00 0.35990
123.50 0.38001
124.00 0.40000
124.50 0.41987
125.00 0.43561
125.50 0.45102
126.00 0.46543
126.50 0.47778
127.00 0.49005
127.50 0.50815
128.00 0.52638
128.50 0.54457
129.00 0.56158
129.50 0.57547
130.00 0.58997
130.50 0.60798
131.00 0.62598
131.50 0.64420
132.00 0.66324
132.50 0.68229
133.00 0.70195
133.50 0.72173
134.00 0.74129
134.50 0.76053
135.00 0.77979
135.50 0.79887
136.00 0.81803
136.50 0.83625
137.00 0.85368
137.50 0.87184
138.00 0.88881
138.50 0.90560
139.00 0.92258
139.50 0.93962
140.00 0.95584
140.50 0.97210
141.00 0.98670
141.50 1.00156
142.00 1.01835
142.50 1.03518
143.00 1.05205
143.50 1.06707
144.00 1.08232
144.50 1.09823
145.00 1.11520
145.50 1.13276
146.00 1.15039
146.50 1.16809
147.00 1.18574
147.50 1.20317
148.00 1.22066
148.50 1.23846
149.00 1.25634
149.50 1.27429
150.00 1.29230
150.50 1.31056
151.00 1.32896
151.50 1.34702
152.00 1.36449
152.50 1.38142
153.00 1.39839
153.50 1.41539
154.00 1.43145
154.50 1.44712
155.00 1.46274
155.50 1.47411
156.00 1.48549
156.50 1.49687
157.00 1.50557
157.50 1.51130
158.00 1.51706
158.50 1.52207
159.00 1.52705
159.50 1.53206
160.00 1.53711
160.50 1.53881
161.00 1.54031
161.50 1.54160
162.00 1.54411
162.50 1.54712
163.00 1.55021
163.50 1.55340
164.00 1.55553
164.50 1.55756
165.00 1.55956
165.50 1.56106
166.00 1.56265
166.50 1.56433
167.00 1.56534
167.50 1.56634
168.00 1.56682
168.50 1.56595
169.00 1.56517
169.50 1.56447
170.00 1.56321
170.50 1.56119
171.00 1.55835
171.50 1.55574
172.00 1.55429
172.50 1.55296
173.00 1.55175
173.50 1.55050
174.00 1.54886
174.50 1.54734
175.00 1.54614
175.50 1.54536
176.00 1.54471
176.50 1.54416
177.00 1.54374
177.50 1.54344
178.00 1.54327
178.50 1.54322
179.00 1.54329
179.50 1.54348
180.00 1.54379
180.00 1.54379
180.50 1.54348
181.00 1.54329
181.50 1.54322
182.00 1.54327
182.50 1.54344
183.00 1.54374
183.50 1.54416
184.00 1.54471
184.50 1.54536
185.00 1.54614
185.50 1.54734
186.00 1.54886
186.50 1.55050
187.00 1.55175
187.50 1.55296
188.00 1.55429
188.50 1.55574
189.00 1.55835
189.50 1.56119
190.00 1.56321
190.50 1.56447
191.00 1.56517
191.50 1.56595
192.00 1.56682
192.50 1.56634
193.00 1.56534
193.50 1.56433
194.00 1.56265
194.50 1.56106
195.00 1.55956
195.50 1.55756
196.00 1.55553
196.50 1.55340
197.00 1.55021
197.50 1.54712
198.00 1.54411
198.50 1.54160
199.00 1.54031
199.50 1.53881
200.00 1.53711
200.50 1.53206
201.00 1.52705
201.50 1.52207
202.00 1.51706
202.50 1.51130
203.00 1.50557
203.50 1.49687
204.00 1.48549
204.50 1.47411
205.00 1.46274
205.50 1.44712
206.00 1.43145
206.50 1.41539
207.00 1.39839
207.50 1.38142
208.00 1.36449
208.50 1.34702
209.00 1.32896
209.50 1.31056
210.00 1.29230
210.50 1.27429
211.00 1.25634
211.50 1.23846
212.00 1.22066
212.50 1.20317
213.00 1.18574
213.50 1.16809
214.00 1.15039
214.50 1.13276
215.00 1.11520
215.50 1.09823
216.00 1.08232
216.50 1.06707
217.00 1.05205
217.50 1.03518
218.00 1.01835
218.50 1.00156
219.00 0.98670
219.50 0.97210
220.00 0.95584
220.50 0.93962
221.00 0.92258
221.50 0.90560
222.00 0.88881
222.50 0.87184
223.00 0.85368
223.50 0.83625
224.00 0.81803
224.50 0.79887
225.00 0.77979
225.50 0.76053
226.00 0.74129
226.50 0.72173
227.00 0.70195
227.50 0.68229
228.00 0.66324
228.50 0.64420
229.00 0.62598
229.50 0.60798
230.00 0.58997
230.50 0.57547
231.00 0.56158
231.50 0.54457
232.00 0.52638
232.50 0.50815
233.00 0.49005
233.50 0.47778
234.00 0.46543
234.50 0.45102
235.00 0.43561
235.50 0.41987
236.00 0.40000
236.50 0.38001
237.00 0.35990
237.50 0.33811
238.00 0.31616
238.50 0.29409
239.00 0.27255
239.50 0.25149
240.00 0.22999
240.50 0.20827
241.00 0.18647
241.50 0.16457
242.00 0.14588
242.50 0.13141
243.00 0.11661
243.50 0.10179
244.00 0.08695
244.50 0.07601
245.00 0.06769
245.50 0.05935
246.00 0.05110
246.50 0.04315
247.00 0.03852
247.50 0.03409
248.00 0.02967
248.50 0.02524
249.00 0.02166
249.50 0.01920
250.00 0.01675
250.50 0.01446
251.00 0.01228
251.50 0.01075
252.00 0.00959
252.50 0.00846
253.00 0.00734
253.50 0.00622
254.00 0.00532
254.50 0.00474
255.00 0.00417
255.50 0.00360
256.00 0.00316
256.50 0.00272
257.00 0.00237
257.50 0.00211
258.00 0.00186
258.50 0.00161
259.00 0.00140
259.50 0.00121
260.00 0.00109
260.50 0.00098
261.00 0.00087
261.50 0.00076
262.00 0.00066
262.50 0.00059
263.00 0.00054
263.50 0.00048
264.00 0.00043
264.50 0.00037
265.00 0.00034
265.50 0.00031
266.00 0.00027
266.50 0.00024
267.00 0.00022
267.50 0.00020
268.00 0.00019
268.50 0.00017
269.00 0.00017
269.50 0.00016
270.00 0.00015
270.00 0.00015
270.50 0.00016
271.00 0.00017
271.50 0.00017
272.00 0.00019
272.50 0.00020
273.00 0.00022
273.50 0.00024
274.00 0.00027
274.50 0.00031
275.00 0.00034
275.50 0.00037
276.00 0.00043
276.50 0.00048
277.00 0.00054
277.50 0.00059
278.00 0.00066
278.50 0.00076
279.00 0.00087
279.50 0.00098
280.00 0.00109
280.50 0.00121
281.00 0.00140
281.50 0.00161
282.00 0.00186
282.50 0.00211
283.00 0.00237
283.50 0.00272
284.00 0.00316
284.50 0.00360
285.00 0.00417
285.50 0.00474
286.00 0.00532
286.50 0.00622
287.00 0.00734
287.50 0.00846
288.00 0.00959
288.50 0.01075
289.00 0.01228
289.50 0.01446
290.00 0.01675
290.50 0.01920
291.00 0.02166
291.50 0.02524
292.00 0.02967
292.50 0.03409
293.00 0.03852
293.50 0.04315
294.00 0.05110
294.50 0.05935
295.00 0.06769
295.50 0.07601
296.00 0.08695
296.50 0.10179
297.00 0.11661
297.50 0.13141
298.00 0.14588
298.50 0.16457
299.00 0.18647
299.50 0.20827
300.00 0.22999
300.50 0.25149
301.00 0.27255
301.50 0.29409
302.00 0.31616
302.50 0.33811
303.00 0.35990
303.50 0.38001
304.00 0.40000
304.50 0.41987
305.00 0.43561
305.50 0.45102
306.00 0.46543
306.50 0.47778
307.00 0.49005
307.50 0.50815
308.00 0.52638
308.50 0.54457
309.00 0.56158
309.50 0.57547
310.00 0.58997
310.50 0.60798
311.00 0.62598
311.50 0.64420
312.00 0.66324
312.50 0.68229
313.00 0.70195
313.50 0.72173
314.00 0.74129
314.50 0.76053
315.00 0.77979
315.50 0.79887
316.00 0.81803
316.50 0.83625
317.00 0.85368
317.50 0.87184
318.00 0.88881
318.50 0.90560
319.00 0.92258
319.50 0.93962
320.00 0.95584
320.50 0.97210
321.00 0.98670
321.50 1.00156
322.00 1.01835
322.50 1.03518
323.00 1.05205
323.50 1.06707
324.00 1.08232
324.50 1.09823
325.00 1.11520
325.50 1.13276
326.00 1.15039
326.50 1.16809
327.00 1.18574
327.50 1.20317
328.00 1.22066
328.50 1.23846
329.00 1.25634
329.50 1.27429
330.00 1.29230
330.50 1.31056
331.00 1.32896
331.50 1.34702
332.00 1.36449
332.50 1.38142
333.00 1.39839
333.50 1.41539
334.00 1.43145
334.50 1.44712
335.00 1.46274
335.50 1.47411
336.00 1.48549
336.50 1.49687
337.00 1.50557
337.50 1.51130
338.00 1.51706
338.50 1.52207
339.00 1.52705
339.50 1.53206
340.00 1.53711
340.50 1.53881
341.00 1.54031
341.50 1.54160
342.00 1.54411
342.50 1.54712
343.00 1.55021
343.50 1.55340
344.00 1.55553
344.50 1.55756
345.00 1.55956
345.50 1.56106
346.00 1.56265
346.50 1.56433
347.00 1.56534
347.50 1.56634
348.00 1.56682
348.50 1.56595
349.00 1.56517
349.50 1.56447
350.00 1.56321
350.50 1.56119
351.00 1.55835
351.50 1.55574
352.00 1.55429
352.50 1.55296
353.00 1.55175
353.50 1.55050
354.00 1.54886
354.50 1.54734
355.00 1.54614
355.50 1.54536
356.00 1.54471
356.50 1.54416
357.00 1.54374
357.50 1.54344
358.00 1.54327
358.50 1.54322
359.00 1.54329
359.50 1.54348
360.00 1.54379
