phi[deg] B[T]
0.00 1.18114
0.50 1.18032
1.00 1.17958
1.50 1.17890
2.00 1.17777
2.50 1.17673
3.00 1.17580
3.50 1.17527
4.00 1.17487
4.50 1.17427
5.00 1.17377
5.50 1.17374
6.00 1.17415
6.50 1.17481
7.00 1.17607
7.50 1.17743
8.00 1.17865
8.50 1.17993
9.00 1.18138
9.50 1.18409
10.00 1.18655
10.50 1.18879
11.00 1.18969
11.50 1.19062
12.00 1.19123
12.50 1.19010
13.00 1.18904
13.50 1.18793
14.00 1.18687
14.50 1.18511
15.00 1.18272
15.50 1.18049
16.00 1.17877
16.50 1.17714
17.00 1.17583
17.50 1.17471
18.00 1.17339
18.50 1.17172
19.00 1.17013
19.50 1.17028
20.00 1.17077
20.50 1.16913
21.00 1.16631
21.50 1.16355
22.00 1.16108
22.50 1.16227
23.00 1.15680
23.50 1.15042
24.00 1.14396
24.50 1.13749
25.00 1.12650
25.50 1.11406
26.00 1.10156
26.50 1.08907
27.00 1.07587
27.50 1.06074
28.00 1.04565
28.50 1.03062
29.00 1.01563
29.50 1.00067
30.00 0.98546
30.50 0.96986
31.00 0.95433
31.50 0.93903
32.00 0.92380
32.50 0.90835
33.00 0.89234
33.50 0.87668
34.00 0.86217
34.50 0.84773
35.00 0.83346
35.50 0.81937
36.00 0.80662
36.50 0.79525
37.00 0.78396
37.50 0.77357
38.00 0.76500
38.50 0.75868
39.00 0.74904
39.50 0.73907
40.00 0.72912
40.50 0.71964
41.00 0.71101
41.50 0.70053
42.00 0.68902
42.50 0.67784
43.00 0.66571
43.50 0.65296
44.00 0.63993
44.50 0.62524
45.00 0.61087
45.50 0.59481
46.00 0.57880
46.50 0.56202
47.00 0.54498
47.50 0.52839
48.00 0.51169
48.50 0.49563
49.00 0.48046
49.50 0.46566
50.00 0.45229
50.50 0.44155
51.00 0.42850
51.50 0.41545
52.00 0.40350
52.50 0.39431
53.00 0.38450
53.50 0.37150
54.00 0.35844
54.50 0.34627
55.00 0.33589
55.50 0.32322
56.00 0.30712
56.50 0.29091
57.00 0.27543
57.50 0.26011
58.00 0.24318
58.50 0.22459
59.00 0.20550
59.50 0.18285
60.00 0.16010
60.50 0.14260
61.00 0.12652
61.50 0.11009
62.00 0.09113
62.50 0.07566
63.00 0.06349
63.50 0.05460
64.00 0.04584
64.50 0.03762
65.00 0.03202
65.50 0.02641
66.00 0.02182
66.50 0.01796
67.00 0.01551
67.50 0.01306
68.00 0.01060
68.50 0.00892
69.00 0.00768
69.50 0.00642
70.00 0.00516
70.50 0.00450
71.00 0.00385
71.50 0.00317
72.00 0.00265
72.50 0.00231
73.00 0.00197
73.50 0.00163
74.00 0.00147
74.50 0.00130
75.00 0.00114
75.50 0.00099
76.00 0.00091
76.50 0.00084
77.00 0.00078
77.50 0.00072
78.00 0.00067
78.50 0.00063
79.00 0.00059
79.50 0.00057
80.00 0.00054
80.50 0.00051
81.00 0.00048
81.50 0.00045
82.00 0.00043
82.50 0.00040
83.00 0.00038
83.50 0.00035
84.00 0.00033
84.50 0.00030
85.00 0.00028
85.50 0.00026
86.00 0.00023
86.50 0.00021
87.00 0.00018
87.50 0.00016
88.00 0.00014
88.50 0.00012
89.00 0.00010
89.50 0.00009
90.00 0.00009
90.00 0.00009
90.50 0.00009
91.00 0.00010
91.50 0.00012
92.00 0.00014
92.50 0.00016
93.00 0.00018
93.50 0.00021
94.00 0.00023
94.50 0.00026
95.00 0.00028
95.50 0.00030
96.00 0.00033
96.50 0.00035
97.00 0.00038
97.50 0.00040
98.00 0.00043
98.50 0.00045
99.00 0.00048
99.50 0.00051
100.00 0.00054
100.50 0.00057
101.00 0.00059
101.50 0.00063
102.00 0.00067
102.50 0.00072
103.00 0.00078
103.50 0.00084
104.00 0.00091
104.50 0.00099
105.00 0.00114
105.50 0.00130
106.00 0.00147
106.50 0.00163
107.00 0.00197
107.50 0.00231
108.00 0.00265
108.50 0.00317
109.00 0.00385
109.50 0.00450
110.00 0.00516
110.50 0.00642
111.00 0.00768
111.50 0.00892
112.00 0.01060
112.50 0.01306
113.00 0.01551
113.50 0.01796
114.00 0.02182
114.50 0.02641
115.00 0.03202
115.50 0.03762
116.00 0.04584
116.50 0.05460
117.00 0.06349
117.50 0.07566
118.00 0.09113
118.50 0.11009
119.00 0.12652
119.50 0.14260
120.00 0.16010
120.50 0.18285
121.00 0.20550
121.50 0.22459
122.00 0.24318
122.50 0.26011
123.00 0.27543
123.50 0.29091
124.00 0.30712
124.50 0.32322
125.00 0.33589
125.50 0.34627
126.00 0.35844
126.50 0.37150
127.00 0.38450
127.50 0.39431
128.00 0.40350
128.50 0.41545
129.00 0.42850
129.50 0.44155
130.00 0.45229
130.50 0.46566
131.00 0.48046
131.50 0.49563
132.00 0.51169
132.50 0.52839
133.00 0.54498
133.50 0.56202
134.00 0.57880
134.50 0.59481
135.00 0.61087
135.50 0.62524
136.00 0.63993
136.50 0.65296
137.00 0.66571
137.50 0.67784
138.00 0.68902
138.50 0.70053
139.00 0.71101
139.50 0.71964
140.00 0.72912
140.50 0.73907
141.00 0.74904
141.50 0.75868
142.00 0.76500
142.50 0.77357
143.00 0.78396
143.50 0.79525
144.00 0.80662
144.50 0.81937
145.00 0.83346
145.50 0.84773
146.00 0.86217
146.50 0.87668
147.00 0.89234
147.50 0.90835
148.00 0.92380
148.50 0.93903
149.00 0.95433
149.50 0.96986
150.00 0.98546
150.50 1.00067
151.00 1.01563
151.50 1.03062
152.00 1.04565
152.50 1.06074
153.00 1.07587
153.50 1.08907
154.00 1.10156
154.50 1.11406
155.00 1.12650
155.50 1.13749
156.00 1.14396
156.50 1.15042
157.00 1.15680
157.50 1.16227
158.00 1.16108
158.50 1.16355
159.00 1.16631
159.50 1.16913
160.00 1.17077
160.50 1.17028
161.00 1.17013
161.50 1.17172
162.00 1.17339
162.50 1.17471
163.00 1.17583
163.50 1.17714
164.00 1.17877
164.50 1.18049
165.00 1.18272
165.50 1.18511
166.00 1.18687
166.50 1.18793
167.00 1.18904
167.50 1.19010
168.00 1.19123
168.50 1.19062
169.00 1.18969
169.50 1.18879
170.00 1.18655
170.50 1.18409
171.00 1.18138
171.50 1.17993
172.00 1.17865
172.50 1.17743
173.00 1.17607
173.50 1.17481
174.00 1.17415
174.50 1.17374
175.00 1.17377
175.50 1.17427
176.00 1.17487
176.50 1.17527
177.00 1.17580
177.50 1.17673
178.00 1.17777
178.50 1.17890
179.00 1.17958
179.50 1.18032
180.00 1.18114
180.00 1.18114
180.50 1.18032
181.00 1.17958
181.50 1.17890
182.00 1.17777
182.50 1.17673
183.00 1.17580
183.50 1.17527
184.00 1.17487
184.50 1.17427
185.00 1.17377
185.50 1.17374
186.00 1.17415
186.50 1.17481
187.00 1.17607
187.50 1.17743
188.00 1.17865
188.50 1.17993
189.00 1.18138
189.50 1.18409
190.00 1.18655
190.50 1.18879
191.00 1.18969
191.50 1.19062
192.00 1.19123
192.50 1.19010
193.00 1.18904
193.50 1.18793
194.00 1.18687
194.50 1.18511
195.00 1.18272
195.50 1.18049
196.00 1.17877
196.50 1.17714
197.00 1.17583
197.50 1.17471
198.00 1.17339
198.50 1.17172
199.00 1.17013
199.50 1.17028
200.00 1.17077
200.50 1.16913
201.00 1.16631
201.50 1.16355
202.00 1.16108
202.50 1.16227
203.00 1.15680
203.50 1.15042
204.00 1.14396
204.50 1.13749
205.00 1.12650
205.50 1.11406
206.00 1.10156
206.50 1.08907
207.00 1.07587
207.50 1.06074
208.00 1.04565
208.50 1.03062
209.00 1.01563
209.50 1.00067
210.00 0.98546
210.50 0.96986
211.00 0.95433
211.50 0.93903
212.00 0.92380
212.50 0.90835
213.00 0.89234
213.50 0.87668
214.00 0.86217
214.50 0.84773
215.00 0.83346
215.50 0.81937
216.00 0.80662
216.50 0.79525
217.00 0.78396
217.50 0.77357
218.00 0.76500
218.50 0.75868
219.00 0.74904
219.50 0.73907
220.00 0.72912
220.50 0.71964
221.00 0.71101
221.50 0.70053
222.00 0.68902
222.50 0.67784
223.00 0.66571
223.50 0.65296
224.00 0.63993
224.50 0.62524
225.00 0.61087
225.50 0.59481
226.00 0.57880
226.50 0.56202
227.00 0.54498
227.50 0.52839
228.00 0.51169
228.50 0.49563
229.00 0.48046
229.50 0.46566
230.00 0.45229
230.50 0.44155
231.00 0.42850
231.50 0.41545
232.00 0.40350
232.50 0.39431
233.00 0.38450
233.50 0.37150
234.00 0.35844
234.50 0.34627
235.00 0.33589
235.50 0.32322
236.00 0.30712
236.50 0.29091
237.00 0.27543
237.50 0.26011
238.00 0.24318
238.50 0.22459
239.00 0.20550
239.50 0.18285
240.00 0.16010
240.50 0.14260
241.00 0.12652
241.50 0.11009
242.00 0.09113
242.50 0.07566
243.00 0.06349
243.50 0.05460
244.00 0.04584
244.50 0.03762
245.00 0.03202
245.50 0.02641
246.00 0.02182
246.50 0.01796
247.00 0.01551
247.50 0.01306
248.00 0.01060
248.50 0.00892
249.00 0.00768
249.50 0.00642
250.00 0.00516
250.50 0.00450
251.00 0.00385
251.50 0.00317
252.00 0.00265
252.50 0.00231
253.00 0.00197
253.50 0.00163
254.00 0.00147
254.50 0.00130
255.00 0.00114
255.50 0.00099
256.00 0.00091
256.50 0.00084
257.00 0.00078
257.50 0.00072
258.00 0.00067
258.50 0.00063
259.00 0.00059
259.50 0.00057
260.00 0.00054
260.50 0.00051
261.00 0.00048
261.50 0.00045
262.00 0.00043
262.50 0.00040
263.00 0.00038
263.50 0.00035
264.00 0.00033
264.50 0.00030
265.00 0.00028
265.50 0.00026
266.00 0.00023
266.50 0.00021
267.00 0.00018
267.50 0.00016
268.00 0.00014
268.50 0.00012
269.00 0.00010
269.50 0.00009
270.00 0.00009
270.00 0.00009
270.50 0.00009
271.00 0.00010
271.50 0.00012
272.00 0.00014
272.50 0.00016
273.00 0.00018
273.50 0.00021
274.00 0.00023
274.50 0.00026
275.00 0.00028
275.50 0.00030
276.00 0.00033
276.50 0.00035
277.00 0.00038
277.50 0.00040
278.00 0.00043
278.50 0.00045
279.00 0.00048
279.50 0.00051
280.00 0.00054
280.50 0.00057
281.00 0.00059
281.50 0.00063
282.00 0.00067
282.50 0.00072
283.00 0.00078
283.50 0.00084
284.00 0.00091
284.50 0.00099
285.00 0.00114
285.50 0.00130
286.00 0.00147
286.50 0.00163
287.00 0.00197
287.50 0.00231
288.00 0.00265
288.50 0.00317
289.00 0.00385
289.50 0.00450
290.00 0.00516
290.50 0.00642
291.00 0.00768
291.50 0.00892
292.00 0.01060
292.50 0.01306
293.00 0.01551
293.50 0.01796
294.00 0.02182
294.50 0.02641
295.00 0.03202
295.50 0.03762
296.00 0.04584
296.50 0.05460
297.00 0.06349
297.50 0.07566
298.00 0.09113
298.50 0.11009
299.00 0.12652
299.50 0.14260
300.00 0.16010
300.50 0.18285
301.00 0.20550
301.50 0.22459
302.00 0.24318
302.50 0.26011
303.00 0.27543
303.50 0.29091
304.00 0.30712
304.50 0.32322
305.00 0.33589
305.50 0.34627
306.00 0.35844
306.50 0.37150
307.00 0.38450
307.50 0.39431
308.00 0.40350
308.50 0.41545
309.00 0.42850
309.50 0.44155
310.00 0.45229
310.50 0.46566
311.00 0.48046
311.50 0.49563
312.00 0.51169
312.50 0.52839
313.00 0.54498
313.50 0.56202
314.00 0.57880
314.50 0.59481
315.00 0.61087
315.50 0.62524
316.00 0.63993
316.50 0.65296
317.00 0.66571
317.50 0.67784
318.00 0.68902
318.50 0.70053
319.00 0.71101
319.50 0.71964
320.00 0.72912
320.50 0.73907
321.00 0.74904
321.50 0.75868
322.00 0.76500
322.50 0.77357
323.00 0.78396
323.50 0.79525
324.00 0.80662
324.50 0.81937
325.00 0.83346
325.50 0.84773
326.00 0.86217
326.50 0.87668
327.00 0.89234
327.50 0.90835
328.00 0.92380
328.50 0.93903
329.00 0.95433
329.50 0.96986
330.00 0.98546
330.50 1.00067
331.00 1.01563
331.50 1.03062
332.00 1.04565
332.50 1.06074
333.00 1.07587
333.50 1.08907
334.00 1.10156
334.50 1.11406
335.00 1.12650
335.50 1.13749
336.00 1.14396
336.50 1.15042
337.00 1.15680
337.50 1.16227
338.00 1.16108
338.50 1.16355
339.00 1.16631
339.50 1.16913
340.00 1.17077
340.50 1.17028
341.00 1.17013
341.50 1.17172
342.00 1.17339
342.50 1.17471
343.00 1.17583
343.50 1.17714
344.00 1.17877
344.50 1.18049
345.00 1.18272
345.50 1.18511
346.00 1.18687
346.50 1.18793
347.00 1.18904
347.50 1.19010
348.00 1.19123
348.50 1.19062
349.00 1.18969
349.50 1.18879
350.00 1.18655
350.50 1.18409
351.00 1.18138
351.50 1.17993
352.00 1.17865
352.50 1.17743
353.00 1.17607
353.50 1.17481
354.00 1.17415
354.50 1.17374
355.00 1.17377
355.50 1.17427
356.00 1.17487
356.50 1.17527
357.00 1.17580
357.50 1.17673
358.00 1.17777
358.50 1.17890
359.00 1.17958
359.50 1.18032
360.00 1.18114
