phi[deg] B[T]
0.00 2.02663
0.50 2.02620
1.00 2.02624
1.50 2.02642
2.00 2.02674
2.50 2.02619
3.00 2.02555
3.50 2.02504
4.00 2.02467
4.50 2.02445
5.00 2.02400
5.50 2.02375
6.00 2.02363
6.50 2.02364
7.00 2.02359
7.50 2.02220
8.00 2.02104
8.50 2.02062
9.00 2.02032
9.50 2.02014
10.00 2.01928
10.50 2.01726
11.00 2.01535
11.50 2.01427
12.00 2.01335
12.50 2.01166
13.00 2.00867
13.50 2.00578
14.00 2.00275
14.50 1.99964
15.00 1.99663
15.50 1.99230
16.00 1.98805
16.50 1.98420
17.00 1.98043
17.50 1.97633
18.00 1.97041
18.50 1.96342
19.00 1.95564
19.50 1.94793
20.00 1.94160
20.50 1.93638
21.00 1.93017
21.50 1.92190
22.00 1.91118
22.50 1.90049
23.00 1.88980
23.50 1.87912
24.00 1.86594
24.50 1.85236
25.00 1.83775
25.50 1.82268
26.00 1.80744
26.50 1.79153
27.00 1.77564
27.50 1.75898
28.00 1.74028
28.50 1.72158
29.00 1.70268
29.50 1.68358
30.00 1.66450
30.50 1.64427
31.00 1.62255
31.50 1.60127
32.00 1.58184
32.50 1.56238
33.00 1.53945
33.50 1.51651
34.00 1.49361
34.50 1.47119
35.00 1.44878
35.50 1.42351
36.00 1.39739
36.50 1.37312
37.00 1.34907
37.50 1.32495
38.00 1.29883
38.50 1.27269
39.00 1.24653
39.50 1.22065
40.00 1.19538
40.50 1.17012
41.00 1.14485
41.50 1.11888
42.00 1.09334
42.50 1.06896
43.00 1.04455
43.50 1.01951
44.00 0.99426
44.50 0.96897
45.00 0.94347
45.50 0.91865
46.00 0.89444
46.50 0.87017
47.00 0.84591
47.50 0.82165
48.00 0.79733
48.50 0.77231
49.00 0.74830
49.50 0.72460
50.00 0.70083
50.50 0.67702
51.00 0.65246
51.50 0.62991
52.00 0.60730
52.50 0.58462
53.00 0.56188
53.50 0.53917
54.00 0.51711
54.50 0.49592
55.00 0.47525
55.50 0.45449
56.00 0.43366
56.50 0.41291
57.00 0.39227
57.50 0.37154
58.00 0.35185
58.50 0.33258
59.00 0.31325
59.50 0.29502
60.00 0.27698
60.50 0.25890
61.00 0.24068
61.50 0.22237
62.00 0.20817
62.50 0.19455
63.00 0.18090
63.50 0.16721
64.00 0.15349
64.50 0.13974
65.00 0.13038
65.50 0.12102
66.00 0.11165
66.50 0.10228
67.00 0.09322
67.50 0.08571
68.00 0.07877
68.50 0.07313
69.00 0.06748
69.50 0.06184
70.00 0.05620
70.50 0.05150
71.00 0.04740
71.50 0.04355
72.00 0.04042
72.50 0.03729
73.00 0.03416
73.50 0.03104
74.00 0.02851
74.50 0.02632
75.00 0.02417
75.50 0.02250
76.00 0.02084
76.50 0.01918
77.00 0.01751
77.50 0.01605
78.00 0.01489
78.50 0.01373
79.00 0.01283
79.50 0.01198
80.00 0.01113
80.50 0.01028
81.00 0.00943
81.50 0.00875
82.00 0.00813
82.50 0.00765
83.00 0.00725
83.50 0.00684
84.00 0.00643
84.50 0.00599
85.00 0.00556
85.50 0.00536
86.00 0.00515
86.50 0.00495
87.00 0.00474
87.50 0.00454
88.00 0.00445
88.50 0.00436
89.00 0.00427
89.50 0.00419
90.00 0.00410
90.00 0.00410
90.50 0.00419
91.00 0.00427
91.50 0.00436
92.00 0.00445
92.50 0.00454
93.00 0.00474
93.50 0.00495
94.00 0.00515
94.50 0.00536
95.00 0.00556
95.50 0.00599
96.00 0.00643
96.50 0.00684
97.00 0.00725
97.50 0.00765
98.00 0.00813
98.50 0.00875
99.00 0.00943
99.50 0.01028
100.00 0.01113
100.50 0.01198
101.00 0.01283
101.50 0.01373
102.00 0.01489
102.50 0.01605
103.00 0.01751
103.50 0.01918
104.00 0.02084
104.50 0.02250
105.00 0.02417
105.50 0.02632
106.00 0.02851
106.50 0.03104
107.00 0.03416
107.50 0.03729
108.00 0.04042
108.50 0.04355
109.00 0.04740
109.50 0.05150
110.00 0.05620
110.50 0.06184
111.00 0.06748
111.50 0.07313
112.00 0.07877
112.50 0.08571
113.00 0.09322
113.50 0.10228
114.00 0.11165
114.50 0.12102
115.00 0.13038
115.50 0.13974
116.00 0.15349
116.50 0.16721
117.00 0.18090
117.50 0.19455
118.00 0.20817
118.50 0.22237
119.00 0.24068
119.50 0.25890
120.00 0.27698
120.50 0.29502
121.00 0.31325
121.50 0.33258
122.00 0.35185
122.50 0.37154
123.00 0.39227
123.50 0.41291
124.00 0.43366
124.50 0.45449
125.00 0.47525
125.50 0.49592
126.00 0.51711
126.50 0.53917
127.00 0.56188
127.50 0.58462
128.00 0.60730
128.50 0.62991
129.00 0.65246
129.50 0.67702
130.00 0.70083
130.50 0.72460
131.00 0.74830
131.50 0.77231
132.00 0.79733
132.50 0.82165
133.00 0.84591
133.50 0.87017
134.00 0.89444
134.50 0.91865
135.00 0.94347
135.50 0.96897
136.00 0.99426
136.50 1.01951
137.00 1.04455
137.50 1.06896
138.00 1.09334
138.50 1.11888
139.00 1.14485
139.50 1.17012
140.00 1.19538
140.50 1.22065
141.00 1.24653
141.50 1.27269
142.00 1.29883
142.50 1.32495
143.00 1.34907
143.50 1.37312
144.00 1.39739
144.50 1.42351
145.00 1.44878
145.50 1.47119
146.00 1.49361
146.50 1.51651
147.00 1.53945
147.50 1.56238
148.00 1.58184
148.50 1.60127
149.00 1.62255
149.50 1.64427
150.00 1.66450
150.50 1.68358
151.00 1.70268
151.50 1.72158
152.00 1.74028
152.50 1.75898
153.00 1.77564
153.50 1.79153
154.00 1.80744
154.50 1.82268
155.00 1.83775
155.50 1.85236
156.00 1.86594
156.50 1.87912
157.00 1.88980
157.50 1.90049
158.00 1.91118
158.50 1.92190
159.00 1.93017
159.50 1.93638
160.00 1.94160
160.50 1.94793
161.00 1.95564
161.50 1.96342
162.00 1.97041
162.50 1.97633
163.00 1.98043
163.50 1.98420
164.00 1.98805
164.50 1.99230
165.00 1.99663
165.50 1.99964
166.00 2.00275
166.50 2.00578
167.00 2.00867
167.50 2.01166
168.00 2.01335
168.50 2.01427
169.00 2.01535
169.50 2.01726
170.00 2.01928
170.50 2.02014
171.00 2.02032
171.50 2.02062
172.00 2.02104
172.50 2.02220
173.00 2.02359
173.50 2.02364
174.00 2.02363
174.50 2.02375
175.00 2.02400
175.50 2.02445
176.00 2.02467
176.50 2.02504
177.00 2.02555
177.50 2.02619
178.00 2.02674
178.50 2.02642
179.00 2.02624
179.50 2.02620
180.00 2.02663
180.00 2.02663
180.50 2.02620
181.00 2.02624
181.50 2.02642
182.00 2.02674
182.50 2.02619
183.00 2.02555
183.50 2.02504
184.00 2.02467
184.50 2.02445
185.00 2.02400
185.50 2.02375
186.00 2.02363
186.50 2.02364
187.00 2.02359
187.50 2.02220
188.00 2.02104
188.50 2.02062
189.00 2.02032
189.50 2.02014
190.00 2.01928
190.50 2.01726
191.00 2.01535
191.50 2.01427
192.00 2.01335
192.50 2.01166
193.00 2.00867
193.50 2.00578
194.00 2.00275
194.50 1.99964
195.00 1.99663
195.50 1.99230
196.00 1.98805
196.50 1.98420
197.00 1.98043
197.50 1.97633
198.00 1.97041
198.50 1.96342
199.00 1.95564
199.50 1.94793
200.00 1.94160
200.50 1.93638
201.00 1.93017
201.50 1.92190
202.00 1.91118
202.50 1.90049
203.00 1.88980
203.50 1.87912
204.00 1.86594
204.50 1.85236
205.00 1.83775
205.50 1.82268
206.00 1.80744
206.50 1.79153
207.00 1.77564
207.50 1.75898
208.00 1.74028
208.50 1.72158
209.00 1.70268
209.50 1.68358
210.00 1.66450
210.50 1.64427
211.00 1.62255
211.50 1.60127
212.00 1.58184
212.50 1.56238
213.00 1.53945
213.50 1.51651
214.00 1.49361
214.50 1.47119
215.00 1.44878
215.50 1.42351
216.00 1.39739
216.50 1.37312
217.00 1.34907
217.50 1.32495
218.00 1.29883
218.50 1.27269
219.00 1.24653
219.50 1.22065
220.00 1.19538
220.50 1.17012
221.00 1.14485
221.50 1.11888
222.00 1.09334
222.50 1.06896
223.00 1.04455
223.50 1.01951
224.00 0.99426
224.50 0.96897
225.00 0.94347
225.50 0.91865
226.00 0.89444
226.50 0.87017
227.00 0.84591
227.50 0.82165
228.00 0.79733
228.50 0.77231
229.00 0.74830
229.50 0.72460
230.00 0.70083
230.50 0.67702
231.00 0.65246
231.50 0.62991
232.00 0.60730
232.50 0.58462
233.00 0.56188
233.50 0.53917
234.00 0.51711
234.50 0.49592
235.00 0.47525
235.50 0.45449
236.00 0.43366
236.50 0.41291
237.00 0.39227
237.50 0.37154
238.00 0.35185
238.50 0.33258
239.00 0.31325
239.50 0.29502
240.00 0.27698
240.50 0.25890
241.00 0.24068
241.50 0.22237
242.00 0.20817
242.50 0.19455
243.00 0.18090
243.50 0.16721
244.00 0.15349
244.50 0.13974
245.00 0.13038
245.50 0.12102
246.00 0.11165
246.50 0.10228
247.00 0.09322
247.50 0.08571
248.00 0.07877
248.50 0.07313
249.00 0.06748
249.50 0.06184
250.00 0.05620
250.50 0.05150
251.00 0.04740
251.50 0.04355
252.00 0.04042
252.50 0.03729
253.00 0.03416
253.50 0.03104
254.00 0.02851
254.50 0.02632
255.00 0.02417
255.50 0.02250
256.00 0.02084
256.50 0.01918
257.00 0.01751
257.50 0.01605
258.00 0.01489
258.50 0.01373
259.00 0.01283
259.50 0.01198
260.00 0.01113
260.50 0.01028
261.00 0.00943
261.50 0.00875
262.00 0.00813
262.50 0.00765
263.00 0.00725
263.50 0.00684
264.00 0.00643
264.50 0.00599
265.00 0.00556
265.50 0.00536
266.00 0.00515
266.50 0.00495
267.00 0.00474
267.50 0.00454
268.00 0.00445
268.50 0.00436
269.00 0.00427
269.50 0.00419
270.00 0.00410
270.00 0.00410
270.50 0.00419
271.00 0.00427
271.50 0.00436
272.00 0.00445
272.50 0.00454
273.00 0.00474
273.50 0.00495
274.00 0.00515
274.50 0.00536
275.00 0.00556
275.50 0.00599
276.00 0.00643
276.50 0.00684
277.00 0.00725
277.50 0.00765
278.00 0.00813
278.50 0.00875
279.00 0.00943
279.50 0.01028
280.00 0.01113
280.50 0.01198
281.00 0.01283
281.50 0.01373
282.00 0.01489
282.50 0.01605
283.00 0.01751
283.50 0.01918
284.00 0.02084
284.50 0.02250
285.00 0.02417
285.50 0.02632
286.00 0.02851
286.50 0.03104
287.00 0.03416
287.50 0.03729
288.00 0.04042
288.50 0.04355
289.00 0.04740
289.50 0.05150
290.00 0.05620
290.50 0.06184
291.00 0.06748
291.50 0.07313
292.00 0.07877
292.50 0.08571
293.00 0.09322
293.50 0.10228
294.00 0.11165
294.50 0.12102
295.00 0.13038
295.50 0.13974
296.00 0.15349
296.50 0.16721
297.00 0.18090
297.50 0.19455
298.00 0.20817
298.50 0.22237
299.00 0.24068
299.50 0.25890
300.00 0.27698
300.50 0.29502
301.00 0.31325
301.50 0.33258
302.00 0.35185
302.50 0.37154
303.00 0.39227
303.50 0.41291
304.00 0.43366
304.50 0.45449
305.00 0.47525
305.50 0.49592
306.00 0.51711
306.50 0.53917
307.00 0.56188
307.50 0.58462
308.00 0.60730
308.50 0.62991
309.00 0.65246
309.50 0.67702
310.00 0.70083
310.50 0.72460
311.00 0.74830
311.50 0.77231
312.00 0.79733
312.50 0.82165
313.00 0.84591
313.50 0.87017
314.00 0.89444
314.50 0.91865
315.00 0.94347
315.50 0.96897
316.00 0.99426
316.50 1.01951
317.00 1.04455
317.50 1.06896
318.00 1.09334
318.50 1.11888
319.00 1.14485
319.50 1.17012
320.00 1.19538
320.50 1.22065
321.00 1.24653
321.50 1.27269
322.00 1.29883
322.50 1.32495
323.00 1.34907
323.50 1.37312
324.00 1.39739
324.50 1.42351
325.00 1.44878
325.50 1.47119
326.00 1.49361
326.50 1.51651
327.00 1.53945
327.50 1.56238
328.00 1.58184
328.50 1.60127
329.00 1.62255
329.50 1.64427
330.00 1.66450
330.50 1.68358
331.00 1.70268
331.50 1.72158
332.00 1.74028
332.50 1.75898
333.00 1.77564
333.50 1.79153
334.00 1.80744
334.50 1.82268
335.00 1.83775
335.50 1.85236
336.00 1.86594
336.50 1.87912
337.00 1.88980
337.50 1.90049
338.00 1.91118
338.50 1.92190
339.00 1.93017
339.50 1.93638
340.00 1.94160
340.50 1.94793
341.00 1.95564
341.50 1.96342
342.00 1.97041
342.50 1.97633
343.00 1.98043
343.50 1.98420
344.00 1.98805
344.50 1.99230
345.00 1.99663
345.50 1.99964
346.00 2.00275
346.50 2.00578
347.00 2.00867
347.50 2.01166
348.00 2.01335
348.50 2.01427
349.00 2.01535
349.50 2.01726
350.00 2.01928
350.50 2.02014
351.00 2.02032
351.50 2.02062
352.00 2.02104
352.50 2.02220
353.00 2.02359
353.50 2.02364
354.00 2.02363
354.50 2.02375
355.00 2.02400
355.50 2.02445
356.00 2.02467
356.50 2.02504
357.00 2.02555
357.50 2.02619
358.00 2.02674
358.50 2.02642
359.00 2.02624
359.50 2.02620
360.00 2.02663
