phi[deg] B[T]
0.00 1.55699
0.50 1.55601
1.00 1.55514
1.50 1.55438
2.00 1.55324
2.50 1.55231
3.00 1.55149
3.50 1.55029
4.00 1.54881
4.50 1.54836
5.00 1.54813
5.50 1.54816
6.00 1.54849
6.50 1.54894
7.00 1.54953
7.50 1.55024
8.00 1.55160
8.50 1.55373
9.00 1.55599
9.50 1.55759
10.00 1.55846
10.50 1.55945
11.00 1.56117
11.50 1.56300
12.00 1.56466
12.50 1.56414
13.00 1.56372
13.50 1.56336
14.00 1.56272
14.50 1.56208
15.00 1.56117
15.50 1.56029
16.00 1.55928
16.50 1.55836
17.00 1.55767
17.50 1.55726
18.00 1.55695
18.50 1.55674
19.00 1.55598
19.50 1.55321
20.00 1.54913
20.50 1.54798
21.00 1.54688
21.50 1.54581
22.00 1.54094
22.50 1.53159
23.00 1.52225
23.50 1.51402
24.00 1.50741
24.50 1.49102
25.00 1.47293
25.50 1.45750
26.00 1.44211
26.50 1.42675
27.00 1.40878
27.50 1.38949
28.00 1.37035
28.50 1.35271
29.00 1.33515
29.50 1.31811
30.00 1.30131
30.50 1.28459
31.00 1.26777
31.50 1.25052
32.00 1.23213
32.50 1.21586
33.00 1.19998
33.50 1.18415
34.00 1.16653
34.50 1.14751
35.00 1.12881
35.50 1.11058
36.00 1.09127
36.50 1.07052
37.00 1.04981
37.50 1.02854
38.00 1.00840
38.50 0.98836
39.00 0.96838
39.50 0.94829
40.00 0.92991
40.50 0.91138
41.00 0.89280
41.50 0.87454
42.00 0.85791
42.50 0.84089
43.00 0.82444
43.50 0.80869
44.00 0.79263
44.50 0.77668
45.00 0.76144
45.50 0.74627
46.00 0.73065
46.50 0.71491
47.00 0.69958
47.50 0.68397
48.00 0.66793
48.50 0.65262
49.00 0.63668
49.50 0.61969
50.00 0.60308
50.50 0.58817
51.00 0.57335
51.50 0.55608
52.00 0.53811
52.50 0.52009
53.00 0.50406
53.50 0.48953
54.00 0.47463
54.50 0.45535
55.00 0.43580
55.50 0.41612
56.00 0.39655
56.50 0.37812
57.00 0.35956
57.50 0.33811
58.00 0.31583
58.50 0.29341
59.00 0.26850
59.50 0.24210
60.00 0.21573
60.50 0.19700
61.00 0.17820
61.50 0.15932
62.00 0.13714
62.50 0.11491
63.00 0.10063
63.50 0.08646
64.00 0.07550
64.50 0.06460
65.00 0.05535
65.50 0.04855
66.00 0.04173
66.50 0.03489
67.00 0.02932
67.50 0.02603
68.00 0.02271
68.50 0.01935
69.00 0.01600
69.50 0.01408
70.00 0.01235
70.50 0.01056
71.00 0.00877
71.50 0.00756
72.00 0.00662
72.50 0.00569
73.00 0.00475
73.50 0.00409
74.00 0.00359
74.50 0.00312
75.00 0.00265
75.50 0.00225
76.00 0.00199
76.50 0.00172
77.00 0.00150
77.50 0.00131
78.00 0.00113
78.50 0.00101
79.00 0.00090
79.50 0.00078
80.00 0.00070
80.50 0.00062
81.00 0.00057
81.50 0.00052
82.00 0.00047
82.50 0.00042
83.00 0.00038
83.50 0.00035
84.00 0.00032
84.50 0.00029
85.00 0.00025
85.50 0.00023
86.00 0.00020
86.50 0.00018
87.00 0.00015
87.50 0.00012
88.00 0.00010
88.50 0.00007
89.00 0.00007
89.50 0.00006
90.00 0.00005
90.00 0.00005
90.50 0.00006
91.00 0.00007
91.50 0.00007
92.00 0.00010
92.50 0.00012
93.00 0.00015
93.50 0.00018
94.00 0.00020
94.50 0.00023
95.00 0.00025
95.50 0.00029
96.00 0.00032
96.50 0.00035
97.00 0.00038
97.50 0.00042
98.00 0.00047
98.50 0.00052
99.00 0.00057
99.50 0.00062
100.00 0.00070
100.50 0.00078
101.00 0.00090
101.50 0.00101
102.00 0.00113
102.50 0.00131
103.00 0.00150
103.50 0.00172
104.00 0.00199
104.50 0.00225
105.00 0.00265
105.50 0.00312
106.00 0.00359
106.50 0.00409
107.00 0.00475
107.50 0.00569
108.00 0.00662
108.50 0.00756
109.00 0.00877
109.50 0.01056
110.00 0.01235
110.50 0.01408
111.00 0.01600
111.50 0.01935
112.00 0.02271
112.50 0.02603
113.00 0.02932
113.50 0.03489
114.00 0.04173
114.50 0.04855
115.00 0.05535
115.50 0.06460
116.00 0.07550
116.50 0.08646
117.00 0.10063
117.50 0.11491
118.00 0.13714
118.50 0.15932
119.00 0.17820
119.50 0.19700
120.00 0.21573
120.50 0.24210
121.00 0.26850
121.50 0.29341
122.00 0.31583
122.50 0.33811
123.00 0.35956
123.50 0.37812
124.00 0.39655
124.50 0.41612
125.00 0.43580
125.50 0.45535
126.00 0.47463
126.50 0.48953
127.00 0.50406
127.50 0.52009
128.00 0.53811
128.50 0.55608
129.00 0.57335
129.50 0.58817
130.00 0.60308
130.50 0.61969
131.00 0.63668
131.50 0.65262
132.00 0.66793
132.50 0.68397
133.00 0.69958
133.50 0.71491
134.00 0.73065
134.50 0.74627
135.00 0.76144
135.50 0.77668
136.00 0.79263
136.50 0.80869
137.00 0.82444
137.50 0.84089
138.00 0.85791
138.50 0.87454
139.00 0.89280
139.50 0.91138
140.00 0.92991
140.50 0.94829
141.00 0.96838
141.50 0.98836
142.00 1.00840
142.50 1.02854
143.00 1.04981
143.50 1.07052
144.00 1.09127
144.50 1.11058
145.00 1.12881
145.50 1.14751
146.00 1.16653
146.50 1.18415
147.00 1.19998
147.50 1.21586
148.00 1.23213
148.50 1.25052
149.00 1.26777
149.50 1.28459
150.00 1.30131
150.50 1.31811
151.00 1.33515
151.50 1.35271
152.00 1.37035
152.50 1.38949
153.00 1.40878
153.50 1.42675
154.00 1.44211
154.50 1.45750
155.00 1.47293
155.50 1.49102
156.00 1.50741
156.50 1.51402
157.00 1.52225
157.50 1.53159
158.00 1.54094
158.50 1.54581
159.00 1.54688
159.50 1.54798
160.00 1.54913
160.50 1.55321
161.00 1.55598
161.50 1.55674
162.00 1.55695
162.50 1.55726
163.00 1.55767
163.50 1.55836
164.00 1.55928
164.50 1.56029
165.00 1.56117
165.50 1.56208
166.00 1.56272
166.50 1.56336
167.00 1.56372
167.50 1.56414
168.00 1.56466
168.50 1.56300
169.00 1.56117
169.50 1.55945
170.00 1.55846
170.50 1.55759
171.00 1.55599
171.50 1.55373
172.00 1.55160
172.50 1.55024
173.00 1.54953
173.50 1.54894
174.00 1.54849
174.50 1.54816
175.00 1.54813
175.50 1.54836
176.00 1.54881
176.50 1.55029
177.00 1.55149
177.50 1.55231
178.00 1.55324
178.50 1.55438
179.00 1.55514
179.50 1.55601
180.00 1.55699
180.00 1.55699
180.50 1.55601
181.00 1.55514
181.50 1.55438
182.00 1.55324
182.50 1.55231
183.00 1.55149
183.50 1.55029
184.00 1.54881
184.50 1.54836
185.00 1.54813
185.50 1.54816
186.00 1.54849
186.50 1.54894
187.00 1.54953
187.50 1.55024
188.00 1.55160
188.50 1.55373
189.00 1.55599
189.50 1.55759
190.00 1.55846
190.50 1.55945
191.00 1.56117
191.50 1.56300
192.00 1.56466
192.50 1.56414
193.00 1.56372
193.50 1.56336
194.00 1.56272
194.50 1.56208
195.00 1.56117
195.50 1.56029
196.00 1.55928
196.50 1.55836
197.00 1.55767
197.50 1.55726
198.00 1.55695
198.50 1.55674
199.00 1.55598
199.50 1.55321
200.00 1.54913
200.50 1.54798
201.00 1.54688
201.50 1.54581
202.00 1.54094
202.50 1.53159
203.00 1.52225
203.50 1.51402
204.00 1.50741
204.50 1.49102
205.00 1.47293
205.50 1.45750
206.00 1.44211
206.50 1.42675
207.00 1.40878
207.50 1.38949
208.00 1.37035
208.50 1.35271
209.00 1.33515
209.50 1.31811
210.00 1.30131
210.50 1.28459
211.00 1.26777
211.50 1.25052
212.00 1.23213
212.50 1.21586
213.00 1.19998
213.50 1.18415
214.00 1.16653
214.50 1.14751
215.00 1.12881
215.50 1.11058
216.00 1.09127
216.50 1.07052
217.00 1.04981
217.50 1.02854
218.00 1.00840
218.50 0.98836
219.00 0.96838
219.50 0.94829
220.00 0.92991
220.50 0.91138
221.00 0.89280
221.50 0.87454
222.00 0.85791
222.50 0.84089
223.00 0.82444
223.50 0.80869
224.00 0.79263
224.50 0.77668
225.00 0.76144
225.50 0.74627
226.00 0.73065
226.50 0.71491
227.00 0.69958
227.50 0.68397
228.00 0.66793
228.50 0.65262
229.00 0.63668
229.50 0.61969
230.00 0.60308
230.50 0.58817
231.00 0.57335
231.50 0.55608
232.00 0.53811
232.50 0.52009
233.00 0.50406
233.50 0.48953
234.00 0.47463
234.50 0.45535
235.00 0.43580
235.50 0.41612
236.00 0.39655
236.50 0.37812
237.00 0.35956
237.50 0.33811
238.00 0.31583
238.50 0.29341
239.00 0.26850
239.50 0.24210
240.00 0.21573
240.50 0.19700
241.00 0.17820
241.50 0.15932
242.00 0.13714
242.50 0.11491
243.00 0.10063
243.50 0.08646
244.00 0.07550
244.50 0.06460
245.00 0.05535
245.50 0.04855
246.00 0.04173
246.50 0.03489
247.00 0.02932
247.50 0.02603
248.00 0.02271
248.50 0.01935
249.00 0.01600
249.50 0.01408
250.00 0.01235
250.50 0.01056
251.00 0.00877
251.50 0.00756
252.00 0.00662
252.50 0.00569
253.00 0.00475
253.50 0.00409
254.00 0.00359
254.50 0.00312
255.00 0.00265
255.50 0.00225
256.00 0.00199
256.50 0.00172
257.00 0.00150
257.50 0.00131
258.00 0.00113
258.50 0.00101
259.00 0.00090
259.50 0.00078
260.00 0.00070
260.50 0.00062
261.00 0.00057
261.50 0.00052
262.00 0.00047
262.50 0.00042
263.00 0.00038
263.50 0.00035
264.00 0.00032
264.50 0.00029
265.00 0.00025
265.50 0.00023
266.00 0.00020
266.50 0.00018
267.00 0.00015
267.50 0.00012
268.00 0.00010
268.50 0.00007
269.00 0.00007
269.50 0.00006
270.00 0.00005
270.00 0.00005
270.50 0.00006
271.00 0.00007
271.50 0.00007
272.00 0.00010
272.50 0.00012
273.00 0.00015
273.50 0.00018
274.00 0.00020
274.50 0.00023
275.00 0.00025
275.50 0.00029
276.00 0.00032
276.50 0.00035
277.00 0.00038
277.50 0.00042
278.00 0.00047
278.50 0.00052
279.00 0.00057
279.50 0.00062
280.00 0.00070
280.50 0.00078
281.00 0.00090
281.50 0.00101
282.00 0.00113
282.50 0.00131
283.00 0.00150
283.50 0.00172
284.00 0.00199
284.50 0.00225
285.00 0.00265
285.50 0.00312
286.00 0.00359
286.50 0.00409
287.00 0.00475
287.50 0.00569
288.00 0.00662
288.50 0.00756
289.00 0.00877
289.50 0.01056
290.00 0.01235
290.50 0.01408
291.00 0.01600
291.50 0.01935
292.00 0.02271
292.50 0.02603
293.00 0.02932
293.50 0.03489
294.00 0.04173
294.50 0.04855
295.00 0.05535
295.50 0.06460
296.00 0.07550
296.50 0.08646
297.00 0.10063
297.50 0.11491
298.00 0.13714
298.50 0.15932
299.00 0.17820
299.50 0.19700
300.00 0.21573
300.50 0.24210
301.00 0.26850
301.50 0.29341
302.00 0.31583
302.50 0.33811
303.00 0.35956
303.50 0.37812
304.00 0.39655
304.50 0.41612
305.00 0.43580
305.50 0.45535
306.00 0.47463
306.50 0.48953
307.00 0.50406
307.50 0.52009
308.00 0.53811
308.50 0.55608
309.00 0.57335
309.50 0.58817
310.00 0.60308
310.50 0.61969
311.00 0.63668
311.50 0.65262
312.00 0.66793
312.50 0.68397
313.00 0.69958
313.50 0.71491
314.00 0.73065
314.50 0.74627
315.00 0.76144
315.50 0.77668
316.00 0.79263
316.50 0.80869
317.00 0.82444
317.50 0.84089
318.00 0.85791
318.50 0.87454
319.00 0.89280
319.50 0.91138
320.00 0.92991
320.50 0.94829
321.00 0.96838
321.50 0.98836
322.00 1.00840
322.50 1.02854
323.00 1.04981
323.50 1.07052
324.00 1.09127
324.50 1.11058
325.00 1.12881
325.50 1.14751
326.00 1.16653
326.50 1.18415
327.00 1.19998
327.50 1.21586
328.00 1.23213
328.50 1.25052
329.00 1.26777
329.50 1.28459
330.00 1.30131
330.50 1.31811
331.00 1.33515
331.50 1.35271
332.00 1.37035
332.50 1.38949
333.00 1.40878
333.50 1.42675
334.00 1.44211
334.50 1.45750
335.00 1.47293
335.50 1.49102
336.00 1.50741
336.50 1.51402
337.00 1.52225
337.50 1.53159
338.00 1.54094
338.50 1.54581
339.00 1.54688
339.50 1.54798
340.00 1.54913
340.50 1.55321
341.00 1.55598
341.50 1.55674
342.00 1.55695
342.50 1.55726
343.00 1.55767
343.50 1.55836
344.00 1.55928
344.50 1.56029
345.00 1.56117
345.50 1.56208
346.00 1.56272
346.50 1.56336
347.00 1.56372
347.50 1.56414
348.00 1.56466
348.50 1.56300
349.00 1.56117
349.50 1.55945
350.00 1.55846
350.50 1.55759
351.00 1.55599
351.50 1.55373
352.00 1.55160
352.50 1.55024
353.00 1.54953
353.50 1.54894
354.00 1.54849
354.50 1.54816
355.00 1.54813
355.50 1.54836
356.00 1.54881
356.50 1.55029
357.00 1.55149
357.50 1.55231
358.00 1.55324
358.50 1.55438
359.00 1.55514
359.50 1.55601
360.00 1.55699
