phi[deg] B[T]
0.00 2.03095
0.50 2.03012
1.00 2.02942
1.50 2.02887
2.00 2.02844
2.50 2.02838
3.00 2.02752
3.50 2.02718
4.00 2.02697
4.50 2.02688
5.00 2.02693
5.50 2.02711
6.00 2.02676
6.50 2.02653
7.00 2.02642
7.50 2.02550
8.00 2.02461
8.50 2.02396
9.00 2.02359
9.50 2.02335
10.00 2.02322
10.50 2.02106
11.00 2.01829
11.50 2.01615
12.00 2.01442
12.50 2.01280
13.00 2.01129
13.50 2.00968
14.00 2.00690
14.50 2.00335
15.00 1.99759
15.50 1.99253
16.00 1.98926
16.50 1.98607
17.00 1.98296
17.50 1.97886
18.00 1.97161
18.50 1.96442
19.00 1.95757
19.50 1.95312
20.00 1.94872
20.50 1.94273
21.00 1.93426
21.50 1.92584
22.00 1.91621
22.50 1.90508
23.00 1.89397
23.50 1.88289
24.00 1.86916
24.50 1.85484
25.00 1.84056
25.50 1.82615
26.00 1.80895
26.50 1.79243
27.00 1.77615
27.50 1.75989
28.00 1.74258
28.50 1.72395
29.00 1.70523
29.50 1.68583
30.00 1.66644
30.50 1.64707
31.00 1.62560
31.50 1.60299
32.00 1.58300
32.50 1.56301
33.00 1.54301
33.50 1.52154
34.00 1.49815
34.50 1.47475
35.00 1.45076
35.50 1.42612
36.00 1.40148
36.50 1.37683
37.00 1.35164
37.50 1.32522
38.00 1.29983
38.50 1.27442
39.00 1.24900
39.50 1.22316
40.00 1.19664
40.50 1.17149
41.00 1.14632
41.50 1.12108
42.00 1.09457
42.50 1.06932
43.00 1.04490
43.50 1.02026
44.00 0.99510
44.50 0.96990
45.00 0.94459
45.50 0.91968
46.00 0.89540
46.50 0.87107
47.00 0.84686
47.50 0.82275
48.00 0.79796
48.50 0.77266
49.00 0.74875
49.50 0.72501
50.00 0.70117
50.50 0.67716
51.00 0.65459
51.50 0.63197
52.00 0.60929
52.50 0.58652
53.00 0.56269
53.50 0.54044
54.00 0.51886
54.50 0.49722
55.00 0.47552
55.50 0.45375
56.00 0.43180
56.50 0.41198
57.00 0.39210
57.50 0.37215
58.00 0.35224
58.50 0.33375
59.00 0.31520
59.50 0.29619
60.00 0.27713
60.50 0.25803
61.00 0.23888
61.50 0.22009
62.00 0.20644
62.50 0.19297
63.00 0.17947
63.50 0.16593
64.00 0.15236
64.50 0.13849
65.00 0.12935
65.50 0.12036
66.00 0.11137
66.50 0.10232
67.00 0.09318
67.50 0.08402
68.00 0.07672
68.50 0.07172
69.00 0.06672
69.50 0.06171
70.00 0.05662
70.50 0.05151
71.00 0.04641
71.50 0.04162
72.00 0.03865
72.50 0.03587
73.00 0.03310
73.50 0.03033
74.00 0.02756
74.50 0.02480
75.00 0.02282
75.50 0.02129
76.00 0.01976
76.50 0.01823
77.00 0.01671
77.50 0.01512
78.00 0.01354
78.50 0.01251
79.00 0.01170
79.50 0.01088
80.00 0.01006
80.50 0.00925
81.00 0.00843
81.50 0.00763
82.00 0.00706
82.50 0.00659
83.00 0.00615
83.50 0.00571
84.00 0.00526
84.50 0.00487
85.00 0.00463
85.50 0.00440
86.00 0.00416
86.50 0.00392
87.00 0.00367
87.50 0.00359
88.00 0.00350
88.50 0.00340
89.00 0.00330
89.50 0.00320
90.00 0.00310
90.00 0.00310
90.50 0.00320
91.00 0.00330
91.50 0.00340
92.00 0.00350
92.50 0.00359
93.00 0.00367
93.50 0.00392
94.00 0.00416
94.50 0.00440
95.00 0.00463
95.50 0.00487
96.00 0.00526
96.50 0.00571
97.00 0.00615
97.50 0.00659
98.00 0.00706
98.50 0.00763
99.00 0.00843
99.50 0.00925
100.00 0.01006
100.50 0.01088
101.00 0.01170
101.50 0.01251
102.00 0.01354
102.50 0.01512
103.00 0.01671
103.50 0.01823
104.00 0.01976
104.50 0.02129
105.00 0.02282
105.50 0.02480
106.00 0.02756
106.50 0.03033
107.00 0.03310
107.50 0.03587
108.00 0.03865
108.50 0.04162
109.00 0.04641
109.50 0.05151
110.00 0.05662
110.50 0.06171
111.00 0.06672
111.50 0.07172
112.00 0.07672
112.50 0.08402
113.00 0.09318
113.50 0.10232
114.00 0.11137
114.50 0.12036
115.00 0.12935
115.50 0.13849
116.00 0.15236
116.50 0.16593
117.00 0.17947
117.50 0.19297
118.00 0.20644
118.50 0.22009
119.00 0.23888
119.50 0.25803
120.00 0.27713
120.50 0.29619
121.00 0.31520
121.50 0.33375
122.00 0.35224
122.50 0.37215
123.00 0.39210
123.50 0.41198
124.00 0.43180
124.50 0.45375
125.00 0.47552
125.50 0.49722
126.00 0.51886
126.50 0.54044
127.00 0.56269
127.50 0.58652
128.00 0.60929
128.50 0.63197
129.00 0.65459
129.50 0.67716
130.00 0.70117
130.50 0.72501
131.00 0.74875
131.50 0.77266
132.00 0.79796
132.50 0.82275
133.00 0.84686
133.50 0.87107
134.00 0.89540
134.50 0.91968
135.00 0.94459
135.50 0.96990
136.00 0.99510
136.50 1.02026
137.00 1.04490
137.50 1.06932
138.00 1.09457
138.50 1.12108
139.00 1.14632
139.50 1.17149
140.00 1.19664
140.50 1.22316
141.00 1.24900
141.50 1.27442
142.00 1.29983
142.50 1.32522
143.00 1.35164
143.50 1.37683
144.00 1.40148
144.50 1.42612
145.00 1.45076
145.50 1.47475
146.00 1.49815
146.50 1.52154
147.00 1.54301
147.50 1.56301
148.00 1.58300
148.50 1.60299
149.00 1.62560
149.50 1.64707
150.00 1.66644
150.50 1.68583
151.00 1.70523
151.50 1.72395
152.00 1.74258
152.50 1.75989
153.00 1.77615
153.50 1.79243
154.00 1.80895
154.50 1.82615
155.00 1.84056
155.50 1.85484
156.00 1.86916
156.50 1.88289
157.00 1.89397
157.50 1.90508
158.00 1.91621
158.50 1.92584
159.00 1.93426
159.50 1.94273
160.00 1.94872
160.50 1.95312
161.00 1.95757
161.50 1.96442
162.00 1.97161
162.50 1.97886
163.00 1.98296
163.50 1.98607
164.00 1.98926
164.50 1.99253
165.00 1.99759
165.50 2.00335
166.00 2.00690
166.50 2.00968
167.00 2.01129
167.50 2.01280
168.00 2.01442
168.50 2.01615
169.00 2.01829
169.50 2.02106
170.00 2.02322
170.50 2.02335
171.00 2.02359
171.50 2.02396
172.00 2.02461
172.50 2.02550
173.00 2.02642
173.50 2.02653
174.00 2.02676
174.50 2.02711
175.00 2.02693
175.50 2.02688
176.00 2.02697
176.50 2.02718
177.00 2.02752
177.50 2.02838
178.00 2.02844
178.50 2.02887
179.00 2.02942
179.50 2.03012
180.00 2.03095
180.00 2.03095
180.50 2.03012
181.00 2.02942
181.50 2.02887
182.00 2.02844
182.50 2.02838
183.00 2.02752
183.50 2.02718
184.00 2.02697
184.50 2.02688
185.00 2.02693
185.50 2.02711
186.00 2.02676
186.50 2.02653
187.00 2.02642
187.50 2.02550
188.00 2.02461
188.50 2.02396
189.00 2.02359
189.50 2.02335
190.00 2.02322
190.50 2.02106
191.00 2.01829
191.50 2.01615
192.00 2.01442
192.50 2.01280
193.00 2.01129
193.50 2.00968
194.00 2.00690
194.50 2.00335
195.00 1.99759
195.50 1.99253
196.00 1.98926
196.50 1.98607
197.00 1.98296
197.50 1.97886
198.00 1.97161
198.50 1.96442
199.00 1.95757
199.50 1.95312
200.00 1.94872
200.50 1.94273
201.00 1.93426
201.50 1.92584
202.00 1.91621
202.50 1.90508
203.00 1.89397
203.50 1.88289
204.00 1.86916
204.50 1.85484
205.00 1.84056
205.50 1.82615
206.00 1.80895
206.50 1.79243
207.00 1.77615
207.50 1.75989
208.00 1.74258
208.50 1.72395
209.00 1.70523
209.50 1.68583
210.00 1.66644
210.50 1.64707
211.00 1.62560
211.50 1.60299
212.00 1.58300
212.50 1.56301
213.00 1.54301
213.50 1.52154
214.00 1.49815
214.50 1.47475
215.00 1.45076
215.50 1.42612
216.00 1.40148
216.50 1.37683
217.00 1.35164
217.50 1.32522
218.00 1.29983
218.50 1.27442
219.00 1.24900
219.50 1.22316
220.00 1.19664
220.50 1.17149
221.00 1.14632
221.50 1.12108
222.00 1.09457
222.50 1.06932
223.00 1.04490
223.50 1.02026
224.00 0.99510
224.50 0.96990
225.00 0.94459
225.50 0.91968
226.00 0.89540
226.50 0.87107
227.00 0.84686
227.50 0.82275
228.00 0.79796
228.50 0.77266
229.00 0.74875
229.50 0.72501
230.00 0.70117
230.50 0.67716
231.00 0.65459
231.50 0.63197
232.00 0.60929
232.50 0.58652
233.00 0.56269
233.50 0.54044
234.00 0.51886
234.50 0.49722
235.00 0.47552
235.50 0.45375
236.00 0.43180
236.50 0.41198
237.00 0.39210
237.50 0.37215
238.00 0.35224
238.50 0.33375
239.00 0.31520
239.50 0.29619
240.00 0.27713
240.50 0.25803
241.00 0.23888
241.50 0.22009
242.00 0.20644
242.50 0.19297
243.00 0.17947
243.50 0.16593
244.00 0.15236
244.50 0.13849
245.00 0.12935
245.50 0.12036
246.00 0.11137
246.50 0.10232
247.00 0.09318
247.50 0.08402
248.00 0.07672
248.50 0.07172
249.00 0.06672
249.50 0.06171
250.00 0.05662
250.50 0.05151
251.00 0.04641
251.50 0.04162
252.00 0.03865
252.50 0.03587
253.00 0.03310
253.50 0.03033
254.00 0.02756
254.50 0.02480
255.00 0.02282
255.50 0.02129
256.00 0.01976
256.50 0.01823
257.00 0.01671
257.50 0.01512
258.00 0.01354
258.50 0.01251
259.00 0.01170
259.50 0.01088
260.00 0.01006
260.50 0.00925
261.00 0.00843
261.50 0.00763
262.00 0.00706
262.50 0.00659
263.00 0.00615
263.50 0.00571
264.00 0.00526
264.50 0.00487
265.00 0.00463
265.50 0.00440
266.00 0.00416
266.50 0.00392
267.00 0.00367
267.50 0.00359
268.00 0.00350
268.50 0.00340
269.00 0.00330
269.50 0.00320
270.00 0.00310
270.00 0.00310
270.50 0.00320
271.00 0.00330
271.50 0.00340
272.00 0.00350
272.50 0.00359
273.00 0.00367
273.50 0.00392
274.00 0.00416
274.50 0.00440
275.00 0.00463
275.50 0.00487
276.00 0.00526
276.50 0.00571
277.00 0.00615
277.50 0.00659
278.00 0.00706
278.50 0.00763
279.00 0.00843
279.50 0.00925
280.00 0.01006
280.50 0.01088
281.00 0.01170
281.50 0.01251
282.00 0.01354
282.50 0.01512
283.00 0.01671
283.50 0.01823
284.00 0.01976
284.50 0.02129
285.00 0.02282
285.50 0.02480
286.00 0.02756
286.50 0.03033
287.00 0.03310
287.50 0.03587
288.00 0.03865
288.50 0.04162
289.00 0.04641
289.50 0.05151
290.00 0.05662
290.50 0.06171
291.00 0.06672
291.50 0.07172
292.00 0.07672
292.50 0.08402
293.00 0.09318
293.50 0.10232
294.00 0.11137
294.50 0.12036
295.00 0.12935
295.50 0.13849
296.00 0.15236
296.50 0.16593
297.00 0.17947
297.50 0.19297
298.00 0.20644
298.50 0.22009
299.00 0.23888
299.50 0.25803
300.00 0.27713
300.50 0.29619
301.00 0.31520
301.50 0.33375
302.00 0.35224
302.50 0.37215
303.00 0.39210
303.50 0.41198
304.00 0.43180
304.50 0.45375
305.00 0.47552
305.50 0.49722
306.00 0.51886
306.50 0.54044
307.00 0.56269
307.50 0.58652
308.00 0.60929
308.50 0.63197
309.00 0.65459
309.50 0.67716
310.00 0.70117
310.50 0.72501
311.00 0.74875
311.50 0.77266
312.00 0.79796
312.50 0.82275
313.00 0.84686
313.50 0.87107
314.00 0.89540
314.50 0.91968
315.00 0.94459
315.50 0.96990
316.00 0.99510
316.50 1.02026
317.00 1.04490
317.50 1.06932
318.00 1.09457
318.50 1.12108
319.00 1.14632
319.50 1.17149
320.00 1.19664
320.50 1.22316
321.00 1.24900
321.50 1.27442
322.00 1.29983
322.50 1.32522
323.00 1.35164
323.50 1.37683
324.00 1.40148
324.50 1.42612
325.00 1.45076
325.50 1.47475
326.00 1.49815
326.50 1.52154
327.00 1.54301
327.50 1.56301
328.00 1.58300
328.50 1.60299
329.00 1.62560
329.50 1.64707
330.00 1.66644
330.50 1.68583
331.00 1.70523
331.50 1.72395
332.00 1.74258
332.50 1.75989
333.00 1.77615
333.50 1.79243
334.00 1.80895
334.50 1.82615
335.00 1.84056
335.50 1.85484
336.00 1.86916
336.50 1.88289
337.00 1.89397
337.50 1.90508
338.00 1.91621
338.50 1.92584
339.00 1.93426
339.50 1.94273
340.00 1.94872
340.50 1.95312
341.00 1.95757
341.50 1.96442
342.00 1.97161
342.50 1.97886
343.00 1.98296
343.50 1.98607
344.00 1.98926
344.50 1.99253
345.00 1.99759
345.50 2.00335
346.00 2.00690
346.50 2.00968
347.00 2.01129
347.50 2.01280
348.00 2.01442
348.50 2.01615
349.00 2.01829
349.50 2.02106
350.00 2.02322
350.50 2.02335
351.00 2.02359
351.50 2.02396
352.00 2.02461
352.50 2.02550
353.00 2.02642
353.50 2.02653
354.00 2.02676
354.50 2.02711
355.00 2.02693
355.50 2.02688
356.00 2.02697
356.50 2.02718
357.00 2.02752
357.50 2.02838
358.00 2.02844
358.50 2.02887
359.00 2.02942
359.50 2.03012
360.00 2.03095
