phi[deg] B[T]
0.00 1.70625
0.50 1.70552
1.00 1.70492
1.50 1.70445
2.00 1.70379
2.50 1.70336
3.00 1.70307
3.50 1.70257
4.00 1.70201
4.50 1.70225
5.00 1.70266
5.50 1.70354
6.00 1.70484
6.50 1.70628
7.00 1.70745
7.50 1.70873
8.00 1.71089
8.50 1.71392
9.00 1.71709
9.50 1.71889
10.00 1.71985
10.50 1.72092
11.00 1.72266
11.50 1.72451
12.00 1.72601
12.50 1.72445
13.00 1.72298
13.50 1.72148
14.00 1.71952
14.50 1.71732
15.00 1.71430
15.50 1.71145
16.00 1.70891
16.50 1.70648
17.00 1.70413
17.50 1.70186
18.00 1.69970
18.50 1.69764
19.00 1.69526
19.50 1.69075
20.00 1.68655
20.50 1.68412
21.00 1.68174
21.50 1.67942
22.00 1.67271
22.50 1.66302
23.00 1.65336
23.50 1.64572
24.00 1.63930
24.50 1.62171
25.00 1.60463
25.50 1.58932
26.00 1.57404
26.50 1.55881
27.00 1.53977
27.50 1.52031
28.00 1.50186
28.50 1.48366
29.00 1.46552
29.50 1.44742
30.00 1.42978
30.50 1.41252
31.00 1.39523
31.50 1.37783
32.00 1.36033
32.50 1.34127
33.00 1.32432
33.50 1.30782
34.00 1.29136
34.50 1.27165
35.00 1.25178
35.50 1.23196
36.00 1.21436
36.50 1.19339
37.00 1.17197
37.50 1.15075
38.00 1.12955
38.50 1.10803
39.00 1.08602
39.50 1.06414
40.00 1.04234
40.50 1.02122
41.00 1.00008
41.50 0.97856
42.00 0.95709
42.50 0.93606
43.00 0.91522
43.50 0.89466
44.00 0.87421
44.50 0.85385
45.00 0.83380
45.50 0.81424
46.00 0.79475
46.50 0.77598
47.00 0.75792
47.50 0.74017
48.00 0.72395
48.50 0.70845
49.00 0.69301
49.50 0.67759
50.00 0.66222
50.50 0.64851
51.00 0.63817
51.50 0.62366
52.00 0.60838
52.50 0.59302
53.00 0.57760
53.50 0.56716
54.00 0.55301
54.50 0.53569
55.00 0.51619
55.50 0.49654
56.00 0.47672
56.50 0.45671
57.00 0.43654
57.50 0.41311
58.00 0.38698
58.50 0.36066
59.00 0.33181
59.50 0.29989
60.00 0.26799
60.50 0.24471
61.00 0.22132
61.50 0.19782
62.00 0.17159
62.50 0.14340
63.00 0.12506
63.50 0.10826
64.00 0.09448
64.50 0.08070
65.00 0.06903
65.50 0.06059
66.00 0.05212
66.50 0.04383
67.00 0.03678
67.50 0.03257
68.00 0.02877
68.50 0.02496
69.00 0.02107
69.50 0.01713
70.00 0.01520
70.50 0.01351
71.00 0.01182
71.50 0.01013
72.00 0.00845
72.50 0.00677
73.00 0.00600
73.50 0.00538
74.00 0.00476
74.50 0.00414
75.00 0.00353
75.50 0.00291
76.00 0.00241
76.50 0.00216
77.00 0.00192
77.50 0.00167
78.00 0.00142
78.50 0.00119
79.00 0.00106
79.50 0.00094
80.00 0.00083
80.50 0.00073
81.00 0.00066
81.50 0.00059
82.00 0.00053
82.50 0.00046
83.00 0.00042
83.50 0.00038
84.00 0.00035
84.50 0.00031
85.00 0.00027
85.50 0.00024
86.00 0.00022
86.50 0.00019
87.00 0.00016
87.50 0.00013
88.00 0.00011
88.50 0.00009
89.00 0.00007
89.50 0.00006
90.00 0.00005
90.00 0.00005
90.50 0.00006
91.00 0.00007
91.50 0.00009
92.00 0.00011
92.50 0.00013
93.00 0.00016
93.50 0.00019
94.00 0.00022
94.50 0.00024
95.00 0.00027
95.50 0.00031
96.00 0.00035
96.50 0.00038
97.00 0.00042
97.50 0.00046
98.00 0.00053
98.50 0.00059
99.00 0.00066
99.50 0.00073
100.00 0.00083
100.50 0.00094
101.00 0.00106
101.50 0.00119
102.00 0.00142
102.50 0.00167
103.00 0.00192
103.50 0.00216
104.00 0.00241
104.50 0.00291
105.00 0.00353
105.50 0.00414
106.00 0.00476
106.50 0.00538
107.00 0.00600
107.50 0.00677
108.00 0.00845
108.50 0.01013
109.00 0.01182
109.50 0.01351
110.00 0.01520
110.50 0.01713
111.00 0.02107
111.50 0.02496
112.00 0.02877
112.50 0.03257
113.00 0.03678
113.50 0.04383
114.00 0.05212
114.50 0.06059
115.00 0.06903
115.50 0.08070
116.00 0.09448
116.50 0.10826
117.00 0.12506
117.50 0.14340
118.00 0.17159
118.50 0.19782
119.00 0.22132
119.50 0.24471
120.00 0.26799
120.50 0.29989
121.00 0.33181
121.50 0.36066
122.00 0.38698
122.50 0.41311
123.00 0.43654
123.50 0.45671
124.00 0.47672
124.50 0.49654
125.00 0.51619
125.50 0.53569
126.00 0.55301
126.50 0.56716
127.00 0.57760
127.50 0.59302
128.00 0.60838
128.50 0.62366
129.00 0.63817
129.50 0.64851
130.00 0.66222
130.50 0.67759
131.00 0.69301
131.50 0.70845
132.00 0.72395
132.50 0.74017
133.00 0.75792
133.50 0.77598
134.00 0.79475
134.50 0.81424
135.00 0.83380
135.50 0.85385
136.00 0.87421
136.50 0.89466
137.00 0.91522
137.50 0.93606
138.00 0.95709
138.50 0.97856
139.00 1.00008
139.50 1.02122
140.00 1.04234
140.50 1.06414
141.00 1.08602
141.50 1.10803
142.00 1.12955
142.50 1.15075
143.00 1.17197
143.50 1.19339
144.00 1.21436
144.50 1.23196
145.00 1.25178
145.50 1.27165
146.00 1.29136
146.50 1.30782
147.00 1.32432
147.50 1.34127
148.00 1.36033
148.50 1.37783
149.00 1.39523
149.50 1.41252
150.00 1.42978
150.50 1.44742
151.00 1.46552
151.50 1.48366
152.00 1.50186
152.50 1.52031
153.00 1.53977
153.50 1.55881
154.00 1.57404
154.50 1.58932
155.00 1.60463
155.50 1.62171
156.00 1.63930
156.50 1.64572
157.00 1.65336
157.50 1.66302
158.00 1.67271
158.50 1.67942
159.00 1.68174
159.50 1.68412
160.00 1.68655
160.50 1.69075
161.00 1.69526
161.50 1.69764
162.00 1.69970
162.50 1.70186
163.00 1.70413
163.50 1.70648
164.00 1.70891
164.50 1.71145
165.00 1.71430
165.50 1.71732
166.00 1.71952
166.50 1.72148
167.00 1.72298
167.50 1.72445
168.00 1.72601
168.50 1.72451
169.00 1.72266
169.50 1.72092
170.00 1.71985
170.50 1.71889
171.00 1.71709
171.50 1.71392
172.00 1.71089
172.50 1.70873
173.00 1.70745
173.50 1.70628
174.00 1.70484
174.50 1.70354
175.00 1.70266
175.50 1.70225
176.00 1.70201
176.50 1.70257
177.00 1.70307
177.50 1.70336
178.00 1.70379
178.50 1.70445
179.00 1.70492
179.50 1.70552
180.00 1.70625
180.00 1.70625
180.50 1.70552
181.00 1.70492
181.50 1.70445
182.00 1.70379
182.50 1.70336
183.00 1.70307
183.50 1.70257
184.00 1.70201
184.50 1.70225
185.00 1.70266
185.50 1.70354
186.00 1.70484
186.50 1.70628
187.00 1.70745
187.50 1.70873
188.00 1.71089
188.50 1.71392
189.00 1.71709
189.50 1.71889
190.00 1.71985
190.50 1.72092
191.00 1.72266
191.50 1.72451
192.00 1.72601
192.50 1.72445
193.00 1.72298
193.50 1.72148
194.00 1.71952
194.50 1.71732
195.00 1.71430
195.50 1.71145
196.00 1.70891
196.50 1.70648
197.00 1.70413
197.50 1.70186
198.00 1.69970
198.50 1.69764
199.00 1.69526
199.50 1.69075
200.00 1.68655
200.50 1.68412
201.00 1.68174
201.50 1.67942
202.00 1.67271
202.50 1.66302
203.00 1.65336
203.50 1.64572
204.00 1.63930
204.50 1.62171
205.00 1.60463
205.50 1.58932
206.00 1.57404
206.50 1.55881
207.00 1.53977
207.50 1.52031
208.00 1.50186
208.50 1.48366
209.00 1.46552
209.50 1.44742
210.00 1.42978
210.50 1.41252
211.00 1.39523
211.50 1.37783
212.00 1.36033
212.50 1.34127
213.00 1.32432
213.50 1.30782
214.00 1.29136
214.50 1.27165
215.00 1.25178
215.50 1.23196
216.00 1.21436
216.50 1.19339
217.00 1.17197
217.50 1.15075
218.00 1.12955
218.50 1.10803
219.00 1.08602
219.50 1.06414
220.00 1.04234
220.50 1.02122
221.00 1.00008
221.50 0.97856
222.00 0.95709
222.50 0.93606
223.00 0.91522
223.50 0.89466
224.00 0.87421
224.50 0.85385
225.00 0.83380
225.50 0.81424
226.00 0.79475
226.50 0.77598
227.00 0.75792
227.50 0.74017
228.00 0.72395
228.50 0.70845
229.00 0.69301
229.50 0.67759
230.00 0.66222
230.50 0.64851
231.00 0.63817
231.50 0.62366
232.00 0.60838
232.50 0.59302
233.00 0.57760
233.50 0.56716
234.00 0.55301
234.50 0.53569
235.00 0.51619
235.50 0.49654
236.00 0.47672
236.50 0.45671
237.00 0.43654
237.50 0.41311
238.00 0.38698
238.50 0.36066
239.00 0.33181
239.50 0.29989
240.00 0.26799
240.50 0.24471
241.00 0.22132
241.50 0.19782
242.00 0.17159
242.50 0.14340
243.00 0.12506
243.50 0.10826
244.00 0.09448
244.50 0.08070
245.00 0.06903
245.50 0.06059
246.00 0.05212
246.50 0.04383
247.00 0.03678
247.50 0.03257
248.00 0.02877
248.50 0.02496
249.00 0.02107
249.50 0.01713
250.00 0.01520
250.50 0.01351
251.00 0.01182
251.50 0.01013
252.00 0.00845
252.50 0.00677
253.00 0.00600
253.50 0.00538
254.00 0.00476
254.50 0.00414
255.00 0.00353
255.50 0.00291
256.00 0.00241
256.50 0.00216
257.00 0.00192
257.50 0.00167
258.00 0.00142
258.50 0.00119
259.00 0.00106
259.50 0.00094
260.00 0.00083
260.50 0.00073
261.00 0.00066
261.50 0.00059
262.00 0.00053
262.50 0.00046
263.00 0.00042
263.50 0.00038
264.00 0.00035
264.50 0.00031
265.00 0.00027
265.50 0.00024
266.00 0.00022
266.50 0.00019
267.00 0.00016
267.50 0.00013
268.00 0.00011
268.50 0.00009
269.00 0.00007
269.50 0.00006
270.00 0.00005
270.00 0.00005
270.50 0.00006
271.00 0.00007
271.50 0.00009
272.00 0.00011
272.50 0.00013
273.00 0.00016
273.50 0.00019
274.00 0.00022
274.50 0.00024
275.00 0.00027
275.50 0.00031
276.00 0.00035
276.50 0.00038
277.00 0.00042
277.50 0.00046
278.00 0.00053
278.50 0.00059
279.00 0.00066
279.50 0.00073
280.00 0.00083
280.50 0.00094
281.00 0.00106
281.50 0.00119
282.00 0.00142
282.50 0.00167
283.00 0.00192
283.50 0.00216
284.00 0.00241
284.50 0.00291
285.00 0.00353
285.50 0.00414
286.00 0.00476
286.50 0.00538
287.00 0.00600
287.50 0.00677
288.00 0.00845
288.50 0.01013
289.00 0.01182
289.50 0.01351
290.00 0.01520
290.50 0.01713
291.00 0.02107
291.50 0.02496
292.00 0.02877
292.50 0.03257
293.00 0.03678
293.50 0.04383
294.00 0.05212
294.50 0.06059
295.00 0.06903
295.50 0.08070
296.00 0.09448
296.50 0.10826
297.00 0.12506
297.50 0.14340
298.00 0.17159
298.50 0.19782
299.00 0.22132
299.50 0.24471
300.00 0.26799
300.50 0.29989
301.00 0.33181
301.50 0.36066
302.00 0.38698
302.50 0.41311
303.00 0.43654
303.50 0.45671
304.00 0.47672
304.50 0.49654
305.00 0.51619
305.50 0.53569
306.00 0.55301
306.50 0.56716
307.00 0.57760
307.50 0.59302
308.00 0.60838
308.50 0.62366
309.00 0.63817
309.50 0.64851
310.00 0.66222
310.50 0.67759
311.00 0.69301
311.50 0.70845
312.00 0.72395
312.50 0.74017
313.00 0.75792
313.50 0.77598
314.00 0.79475
314.50 0.81424
315.00 0.83380
315.50 0.85385
316.00 0.87421
316.50 0.89466
317.00 0.91522
317.50 0.93606
318.00 0.95709
318.50 0.97856
319.00 1.00008
319.50 1.02122
320.00 1.04234
320.50 1.06414
321.00 1.08602
321.50 1.10803
322.00 1.12955
322.50 1.15075
323.00 1.17197
323.50 1.19339
324.00 1.21436
324.50 1.23196
325.00 1.25178
325.50 1.27165
326.00 1.29136
326.50 1.30782
327.00 1.32432
327.50 1.34127
328.00 1.36033
328.50 1.37783
329.00 1.39523
329.50 1.41252
330.00 1.42978
330.50 1.44742
331.00 1.46552
331.50 1.48366
332.00 1.50186
332.50 1.52031
333.00 1.53977
333.50 1.55881
334.00 1.57404
334.50 1.58932
335.00 1.60463
335.50 1.62171
336.00 1.63930
336.50 1.64572
337.00 1.65336
337.50 1.66302
338.00 1.67271
338.50 1.67942
339.00 1.68174
339.50 1.68412
340.00 1.68655
340.50 1.69075
341.00 1.69526
341.50 1.69764
342.00 1.69970
342.50 1.70186
343.00 1.70413
343.50 1.70648
344.00 1.70891
344.50 1.71145
345.00 1.71430
345.50 1.71732
346.00 1.71952
346.50 1.72148
347.00 1.72298
347.50 1.72445
348.00 1.72601
348.50 1.72451
349.00 1.72266
349.50 1.72092
350.00 1.71985
350.50 1.71889
351.00 1.71709
351.50 1.71392
352.00 1.71089
352.50 1.70873
353.00 1.70745
353.50 1.70628
354.00 1.70484
354.50 1.70354
355.00 1.70266
355.50 1.70225
356.00 1.70201
356.50 1.70257
357.00 1.70307
357.50 1.70336
358.00 1.70379
358.50 1.70445
359.00 1.70492
359.50 1.70552
360.00 1.70625
