phi[deg] B[T]
0.00 1.72556
0.50 1.72490
1.00 1.72438
1.50 1.72398
2.00 1.72367
2.50 1.72330
3.00 1.72307
3.50 1.72297
4.00 1.72303
4.50 1.72335
5.00 1.72381
5.50 1.72468
6.00 1.72587
6.50 1.72720
7.00 1.72829
7.50 1.72939
8.00 1.73063
8.50 1.73200
9.00 1.73475
9.50 1.73779
10.00 1.73991
10.50 1.74115
11.00 1.74174
11.50 1.74243
12.00 1.74322
12.50 1.74238
13.00 1.74093
13.50 1.73949
14.00 1.73751
14.50 1.73562
15.00 1.73384
15.50 1.73158
16.00 1.72930
16.50 1.72694
17.00 1.72349
17.50 1.72014
18.00 1.71690
18.50 1.71426
19.00 1.71314
19.50 1.71166
20.00 1.70990
20.50 1.70435
21.00 1.69884
21.50 1.69337
22.00 1.68779
22.50 1.68072
23.00 1.67369
23.50 1.66376
24.00 1.65120
24.50 1.63866
25.00 1.62613
25.50 1.60856
26.00 1.59095
26.50 1.57331
27.00 1.55555
27.50 1.53785
28.00 1.52020
28.50 1.50210
29.00 1.48349
29.50 1.46618
30.00 1.44859
30.50 1.43024
31.00 1.41194
31.50 1.39371
32.00 1.37578
32.50 1.35974
33.00 1.34376
33.50 1.32484
34.00 1.30476
34.50 1.28473
35.00 1.26473
35.50 1.24556
36.00 1.22789
36.50 1.20723
37.00 1.18518
37.50 1.16353
38.00 1.14192
38.50 1.12033
39.00 1.09863
39.50 1.07692
40.00 1.05513
40.50 1.03337
41.00 1.01149
41.50 0.99015
42.00 0.96905
42.50 0.94793
43.00 0.92689
43.50 0.90643
44.00 0.88601
44.50 0.86565
45.00 0.84536
45.50 0.82592
46.00 0.80650
46.50 0.78785
47.00 0.76973
47.50 0.75166
48.00 0.73484
48.50 0.71797
49.00 0.70222
49.50 0.68624
50.00 0.67026
50.50 0.65848
51.00 0.64743
51.50 0.63110
52.00 0.61278
52.50 0.59439
53.00 0.57615
53.50 0.56469
54.00 0.55311
54.50 0.53783
55.00 0.52078
55.50 0.50331
56.00 0.48087
56.50 0.45827
57.00 0.43551
57.50 0.40959
58.00 0.38344
58.50 0.35714
59.00 0.33149
59.50 0.30643
60.00 0.28043
60.50 0.25404
61.00 0.22755
61.50 0.20093
62.00 0.17828
62.50 0.16061
63.00 0.14251
63.50 0.12439
64.00 0.10625
64.50 0.09287
65.00 0.08269
65.50 0.07249
66.00 0.06241
66.50 0.05270
67.00 0.04704
67.50 0.04163
68.00 0.03621
68.50 0.03079
69.00 0.02642
69.50 0.02342
70.00 0.02041
70.50 0.01762
71.00 0.01495
71.50 0.01308
72.00 0.01167
72.50 0.01028
73.00 0.00891
73.50 0.00755
74.00 0.00645
74.50 0.00574
75.00 0.00504
75.50 0.00435
76.00 0.00381
76.50 0.00327
77.00 0.00284
77.50 0.00254
78.00 0.00223
78.50 0.00193
79.00 0.00168
79.50 0.00144
80.00 0.00129
80.50 0.00116
81.00 0.00103
81.50 0.00090
82.00 0.00077
82.50 0.00069
83.00 0.00063
83.50 0.00056
84.00 0.00049
84.50 0.00042
85.00 0.00038
85.50 0.00034
86.00 0.00030
86.50 0.00026
87.00 0.00023
87.50 0.00021
88.00 0.00018
88.50 0.00016
89.00 0.00015
89.50 0.00014
90.00 0.00013
90.00 0.00013
90.50 0.00014
91.00 0.00015
91.50 0.00016
92.00 0.00018
92.50 0.00021
93.00 0.00023
93.50 0.00026
94.00 0.00030
94.50 0.00034
95.00 0.00038
95.50 0.00042
96.00 0.00049
96.50 0.00056
97.00 0.00063
97.50 0.00069
98.00 0.00077
98.50 0.00090
99.00 0.00103
99.50 0.00116
100.00 0.00129
100.50 0.00144
101.00 0.00168
101.50 0.00193
102.00 0.00223
102.50 0.00254
103.00 0.00284
103.50 0.00327
104.00 0.00381
104.50 0.00435
105.00 0.00504
105.50 0.00574
106.00 0.00645
106.50 0.00755
107.00 0.00891
107.50 0.01028
108.00 0.01167
108.50 0.01308
109.00 0.01495
109.50 0.01762
110.00 0.02041
110.50 0.02342
111.00 0.02642
111.50 0.03079
112.00 0.03621
112.50 0.04163
113.00 0.04704
113.50 0.05270
114.00 0.06241
114.50 0.07249
115.00 0.08269
115.50 0.09287
116.00 0.10625
116.50 0.12439
117.00 0.14251
117.50 0.16061
118.00 0.17828
118.50 0.20093
119.00 0.22755
119.50 0.25404
120.00 0.28043
120.50 0.30643
121.00 0.33149
121.50 0.35714
122.00 0.38344
122.50 0.40959
123.00 0.43551
123.50 0.45827
124.00 0.48087
124.50 0.50331
125.00 0.52078
125.50 0.53783
126.00 0.55311
126.50 0.56469
127.00 0.57615
127.50 0.59439
128.00 0.61278
128.50 0.63110
129.00 0.64743
129.50 0.65848
130.00 0.67026
130.50 0.68624
131.00 0.70222
131.50 0.71797
132.00 0.73484
132.50 0.75166
133.00 0.76973
133.50 0.78785
134.00 0.80650
134.50 0.82592
135.00 0.84536
135.50 0.86565
136.00 0.88601
136.50 0.90643
137.00 0.92689
137.50 0.94793
138.00 0.96905
138.50 0.99015
139.00 1.01149
139.50 1.03337
140.00 1.05513
140.50 1.07692
141.00 1.09863
141.50 1.12033
142.00 1.14192
142.50 1.16353
143.00 1.18518
143.50 1.20723
144.00 1.22789
144.50 1.24556
145.00 1.26473
145.50 1.28473
146.00 1.30476
146.50 1.32484
147.00 1.34376
147.50 1.35974
148.00 1.37578
148.50 1.39371
149.00 1.41194
149.50 1.43024
150.00 1.44859
150.50 1.46618
151.00 1.48349
151.50 1.50210
152.00 1.52020
152.50 1.53785
153.00 1.55555
153.50 1.57331
154.00 1.59095
154.50 1.60856
155.00 1.62613
155.50 1.63866
156.00 1.65120
156.50 1.66376
157.00 1.67369
157.50 1.68072
158.00 1.68779
158.50 1.69337
159.00 1.69884
159.50 1.70435
160.00 1.70990
160.50 1.71166
161.00 1.71314
161.50 1.71426
162.00 1.71690
162.50 1.72014
163.00 1.72349
163.50 1.72694
164.00 1.72930
164.50 1.73158
165.00 1.73384
165.50 1.73562
166.00 1.73751
166.50 1.73949
167.00 1.74093
167.50 1.74238
168.00 1.74322
168.50 1.74243
169.00 1.74174
169.50 1.74115
170.00 1.73991
170.50 1.73779
171.00 1.73475
171.50 1.73200
172.00 1.73063
172.50 1.72939
173.00 1.72829
173.50 1.72720
174.00 1.72587
174.50 1.72468
175.00 1.72381
175.50 1.72335
176.00 1.72303
176.50 1.72297
177.00 1.72307
177.50 1.72330
178.00 1.72367
178.50 1.72398
179.00 1.72438
179.50 1.72490
180.00 1.72556
180.00 1.72556
180.50 1.72490
181.00 1.72438
181.50 1.72398
182.00 1.72367
182.50 1.72330
183.00 1.72307
183.50 1.72297
184.00 1.72303
184.50 1.72335
185.00 1.72381
185.50 1.72468
186.00 1.72587
186.50 1.72720
187.00 1.72829
187.50 1.72939
188.00 1.73063
188.50 1.73200
189.00 1.73475
189.50 1.73779
190.00 1.73991
190.50 1.74115
191.00 1.74174
191.50 1.74243
192.00 1.74322
192.50 1.74238
193.00 1.74093
193.50 1.73949
194.00 1.73751
194.50 1.73562
195.00 1.73384
195.50 1.73158
196.00 1.72930
196.50 1.72694
197.00 1.72349
197.50 1.72014
198.00 1.71690
198.50 1.71426
199.00 1.71314
199.50 1.71166
200.00 1.70990
200.50 1.70435
201.00 1.69884
201.50 1.69337
202.00 1.68779
202.50 1.68072
203.00 1.67369
203.50 1.66376
204.00 1.65120
204.50 1.63866
205.00 1.62613
205.50 1.60856
206.00 1.59095
206.50 1.57331
207.00 1.55555
207.50 1.53785
208.00 1.52020
208.50 1.50210
209.00 1.48349
209.50 1.46618
210.00 1.44859
210.50 1.43024
211.00 1.41194
211.50 1.39371
212.00 1.37578
212.50 1.35974
213.00 1.34376
213.50 1.32484
214.00 1.30476
214.50 1.28473
215.00 1.26473
215.50 1.24556
216.00 1.22789
216.50 1.20723
217.00 1.18518
217.50 1.16353
218.00 1.14192
218.50 1.12033
219.00 1.09863
219.50 1.07692
220.00 1.05513
220.50 1.03337
221.00 1.01149
221.50 0.99015
222.00 0.96905
222.50 0.94793
223.00 0.92689
223.50 0.90643
224.00 0.88601
224.50 0.86565
225.00 0.84536
225.50 0.82592
226.00 0.80650
226.50 0.78785
227.00 0.76973
227.50 0.75166
228.00 0.73484
228.50 0.71797
229.00 0.70222
229.50 0.68624
230.00 0.67026
230.50 0.65848
231.00 0.64743
231.50 0.63110
232.00 0.61278
232.50 0.59439
233.00 0.57615
233.50 0.56469
234.00 0.55311
234.50 0.53783
235.00 0.52078
235.50 0.50331
236.00 0.48087
236.50 0.45827
237.00 0.43551
237.50 0.40959
238.00 0.38344
238.50 0.35714
239.00 0.33149
239.50 0.30643
240.00 0.28043
240.50 0.25404
241.00 0.22755
241.50 0.20093
242.00 0.17828
242.50 0.16061
243.00 0.14251
243.50 0.12439
244.00 0.10625
244.50 0.09287
245.00 0.08269
245.50 0.07249
246.00 0.06241
246.50 0.05270
247.00 0.04704
247.50 0.04163
248.00 0.03621
248.50 0.03079
249.00 0.02642
249.50 0.02342
250.00 0.02041
250.50 0.01762
251.00 0.01495
251.50 0.01308
252.00 0.01167
252.50 0.01028
253.00 0.00891
253.50 0.00755
254.00 0.00645
254.50 0.00574
255.00 0.00504
255.50 0.00435
256.00 0.00381
256.50 0.00327
257.00 0.00284
257.50 0.00254
258.00 0.00223
258.50 0.00193
259.00 0.00168
259.50 0.00144
260.00 0.00129
260.50 0.00116
261.00 0.00103
261.50 0.00090
262.00 0.00077
262.50 0.00069
263.00 0.00063
263.50 0.00056
264.00 0.00049
264.50 0.00042
265.00 0.00038
265.50 0.00034
266.00 0.00030
266.50 0.00026
267.00 0.00023
267.50 0.00021
268.00 0.00018
268.50 0.00016
269.00 0.00015
269.50 0.00014
270.00 0.00013
270.00 0.00013
270.50 0.00014
271.00 0.00015
271.50 0.00016
272.00 0.00018
272.50 0.00021
273.00 0.00023
273.50 0.00026
274.00 0.00030
274.50 0.00034
275.00 0.00038
275.50 0.00042
276.00 0.00049
276.50 0.00056
277.00 0.00063
277.50 0.00069
278.00 0.00077
278.50 0.00090
279.00 0.00103
279.50 0.00116
280.00 0.00129
280.50 0.00144
281.00 0.00168
281.50 0.00193
282.00 0.00223
282.50 0.00254
283.00 0.00284
283.50 0.00327
284.00 0.00381
284.50 0.00435
285.00 0.00504
285.50 0.00574
286.00 0.00645
286.50 0.00755
287.00 0.00891
287.50 0.01028
288.00 0.01167
288.50 0.01308
289.00 0.01495
289.50 0.01762
290.00 0.02041
290.50 0.02342
291.00 0.02642
291.50 0.03079
292.00 0.03621
292.50 0.04163
293.00 0.04704
293.50 0.05270
294.00 0.06241
294.50 0.07249
295.00 0.08269
295.50 0.09287
296.00 0.10625
296.50 0.12439
297.00 0.14251
297.50 0.16061
298.00 0.17828
298.50 0.20093
299.00 0.22755
299.50 0.25404
300.00 0.28043
300.50 0.30643
301.00 0.33149
301.50 0.35714
302.00 0.38344
302.50 0.40959
303.00 0.43551
303.50 0.45827
304.00 0.48087
304.50 0.50331
305.00 0.52078
305.50 0.53783
306.00 0.55311
306.50 0.56469
307.00 0.57615
307.50 0.59439
308.00 0.61278
308.50 0.63110
309.00 0.64743
309.50 0.65848
310.00 0.67026
310.50 0.68624
311.00 0.70222
311.50 0.71797
312.00 0.73484
312.50 0.75166
313.00 0.76973
313.50 0.78785
314.00 0.80650
314.50 0.82592
315.00 0.84536
315.50 0.86565
316.00 0.88601
316.50 0.90643
317.00 0.92689
317.50 0.94793
318.00 0.96905
318.50 0.99015
319.00 1.01149
319.50 1.03337
320.00 1.05513
320.50 1.07692
321.00 1.09863
321.50 1.12033
322.00 1.14192
322.50 1.16353
323.00 1.18518
323.50 1.20723
324.00 1.22789
324.50 1.24556
325.00 1.26473
325.50 1.28473
326.00 1.30476
326.50 1.32484
327.00 1.34376
327.50 1.35974
328.00 1.37578
328.50 1.39371
329.00 1.41194
329.50 1.43024
330.00 1.44859
330.50 1.46618
331.00 1.48349
331.50 1.50210
332.00 1.52020
332.50 1.53785
333.00 1.55555
333.50 1.57331
334.00 1.59095
334.50 1.60856
335.00 1.62613
335.50 1.63866
336.00 1.65120
336.50 1.66376
337.00 1.67369
337.50 1.68072
338.00 1.68779
338.50 1.69337
339.00 1.69884
339.50 1.70435
340.00 1.70990
340.50 1.71166
341.00 1.71314
341.50 1.71426
342.00 1.71690
342.50 1.72014
343.00 1.72349
343.50 1.72694
344.00 1.72930
344.50 1.73158
345.00 1.73384
345.50 1.73562
346.00 1.73751
346.50 1.73949
347.00 1.74093
347.50 1.74238
348.00 1.74322
348.50 1.74243
349.00 1.74174
349.50 1.74115
350.00 1.73991
350.50 1.73779
351.00 1.73475
351.50 1.73200
352.00 1.73063
352.50 1.72939
353.00 1.72829
353.50 1.72720
354.00 1.72587
354.50 1.72468
355.00 1.72381
355.50 1.72335
356.00 1.72303
356.50 1.72297
357.00 1.72307
357.50 1.72330
358.00 1.72367
358.50 1.72398
359.00 1.72438
359.50 1.72490
360.00 1.72556
