phi[deg] B[T]
0.00 1.48102
0.50 1.48055
1.00 1.48020
1.50 1.47999
2.00 1.48025
2.50 1.48016
3.00 1.48004
3.50 1.48009
4.00 1.48024
4.50 1.48051
5.00 1.48059
5.50 1.48070
6.00 1.48068
6.50 1.48077
7.00 1.48097
7.50 1.48133
8.00 1.48210
8.50 1.48319
9.00 1.48402
9.50 1.48405
10.00 1.48417
10.50 1.48439
11.00 1.48471
11.50 1.48513
12.00 1.48563
12.50 1.48624
13.00 1.48797
13.50 1.49009
14.00 1.49174
14.50 1.49038
15.00 1.48907
15.50 1.48782
16.00 1.48661
16.50 1.48546
17.00 1.48437
17.50 1.48333
18.00 1.48352
18.50 1.48329
19.00 1.48125
19.50 1.47605
20.00 1.47073
20.50 1.46542
21.00 1.46012
21.50 1.45482
22.00 1.44954
22.50 1.44426
23.00 1.44071
23.50 1.43794
24.00 1.43190
24.50 1.42571
25.00 1.41468
25.50 1.40359
26.00 1.39245
26.50 1.38125
27.00 1.36999
27.50 1.35900
28.00 1.34812
28.50 1.33719
29.00 1.32432
29.50 1.30541
30.00 1.28639
30.50 1.26727
31.00 1.24884
31.50 1.23046
32.00 1.21198
32.50 1.19339
33.00 1.16717
33.50 1.14041
34.00 1.11500
34.50 1.08943
35.00 1.06370
35.50 1.03587
36.00 1.00225
36.50 0.97199
37.00 0.94168
37.50 0.91116
38.00 0.87951
38.50 0.84096
39.00 0.80220
39.50 0.76325
40.00 0.72463
40.50 0.68659
41.00 0.64843
41.50 0.61004
42.00 0.57148
42.50 0.53452
43.00 0.49742
43.50 0.46051
44.00 0.42616
44.50 0.39169
45.00 0.35632
45.50 0.32584
46.00 0.29735
46.50 0.26953
47.00 0.24715
47.50 0.22449
48.00 0.20128
48.50 0.18098
49.00 0.16433
49.50 0.14802
50.00 0.13343
50.50 0.12043
51.00 0.10846
51.50 0.09876
52.00 0.08926
52.50 0.07988
53.00 0.07072
53.50 0.06463
54.00 0.05854
54.50 0.05392
55.00 0.04935
55.50 0.04480
56.00 0.04025
56.50 0.03571
57.00 0.03137
57.50 0.02793
58.00 0.02450
58.50 0.02264
59.00 0.02086
59.50 0.01905
60.00 0.01720
60.50 0.01535
61.00 0.01351
61.50 0.01183
62.00 0.01094
62.50 0.01005
63.00 0.00916
63.50 0.00827
64.00 0.00738
64.50 0.00651
65.00 0.00582
65.50 0.00539
66.00 0.00496
66.50 0.00452
67.00 0.00409
67.50 0.00365
68.00 0.00321
68.50 0.00288
69.00 0.00266
69.50 0.00246
70.00 0.00226
70.50 0.00206
71.00 0.00186
71.50 0.00166
72.00 0.00146
72.50 0.00129
73.00 0.00119
73.50 0.00111
74.00 0.00103
74.50 0.00095
75.00 0.00086
75.50 0.00078
76.00 0.00070
76.50 0.00062
77.00 0.00058
77.50 0.00054
78.00 0.00050
78.50 0.00047
79.00 0.00043
79.50 0.00039
80.00 0.00035
80.50 0.00033
81.00 0.00031
81.50 0.00028
82.00 0.00026
82.50 0.00024
83.00 0.00022
83.50 0.00020
84.00 0.00019
84.50 0.00017
85.00 0.00016
85.50 0.00014
86.00 0.00013
86.50 0.00011
87.00 0.00010
87.50 0.00009
88.00 0.00008
88.50 0.00007
89.00 0.00007
89.50 0.00006
90.00 0.00005
90.00 0.00005
90.50 0.00006
91.00 0.00007
91.50 0.00007
92.00 0.00008
92.50 0.00009
93.00 0.00010
93.50 0.00011
94.00 0.00013
94.50 0.00014
95.00 0.00016
95.50 0.00017
96.00 0.00019
96.50 0.00020
97.00 0.00022
97.50 0.00024
98.00 0.00026
98.50 0.00028
99.00 0.00031
99.50 0.00033
100.00 0.00035
100.50 0.00039
101.00 0.00043
101.50 0.00047
102.00 0.00050
102.50 0.00054
103.00 0.00058
103.50 0.00062
104.00 0.00070
104.50 0.00078
105.00 0.00086
105.50 0.00095
106.00 0.00103
106.50 0.00111
107.00 0.00119
107.50 0.00129
108.00 0.00146
108.50 0.00166
109.00 0.00186
109.50 0.00206
110.00 0.00226
110.50 0.00246
111.00 0.00266
111.50 0.00288
112.00 0.00321
112.50 0.00365
113.00 0.00409
113.50 0.00452
114.00 0.00496
114.50 0.00539
115.00 0.00582
115.50 0.00651
116.00 0.00738
116.50 0.00827
117.00 0.00916
117.50 0.01005
118.00 0.01094
118.50 0.01183
119.00 0.01351
119.50 0.01535
120.00 0.01720
120.50 0.01905
121.00 0.02086
121.50 0.02264
122.00 0.02450
122.50 0.02793
123.00 0.03137
123.50 0.03571
124.00 0.04025
124.50 0.04480
125.00 0.04935
125.50 0.05392
126.00 0.05854
126.50 0.06463
127.00 0.07072
127.50 0.07988
128.00 0.08926
128.50 0.09876
129.00 0.10846
129.50 0.12043
130.00 0.13343
130.50 0.14802
131.00 0.16433
131.50 0.18098
132.00 0.20128
132.50 0.22449
133.00 0.24715
133.50 0.26953
134.00 0.29735
134.50 0.32584
135.00 0.35632
135.50 0.39169
136.00 0.42616
136.50 0.46051
137.00 0.49742
137.50 0.53452
138.00 0.57148
138.50 0.61004
139.00 0.64843
139.50 0.68659
140.00 0.72463
140.50 0.76325
141.00 0.80220
141.50 0.84096
142.00 0.87951
142.50 0.91116
143.00 0.94168
143.50 0.97199
144.00 1.00225
144.50 1.03587
145.00 1.06370
145.50 1.08943
146.00 1.11500
146.50 1.14041
147.00 1.16717
147.50 1.19339
148.00 1.21198
148.50 1.23046
149.00 1.24884
149.50 1.26727
150.00 1.28639
150.50 1.30541
151.00 1.32432
151.50 1.33719
152.00 1.34812
152.50 1.35900
153.00 1.36999
153.50 1.38125
154.00 1.39245
154.50 1.40359
155.00 1.41468
155.50 1.42571
156.00 1.43190
156.50 1.43794
157.00 1.44071
157.50 1.44426
158.00 1.44954
158.50 1.45482
159.00 1.46012
159.50 1.46542
160.00 1.47073
160.50 1.47605
161.00 1.48125
161.50 1.48329
162.00 1.48352
162.50 1.48333
163.00 1.48437
163.50 1.48546
164.00 1.48661
164.50 1.48782
165.00 1.48907
165.50 1.49038
166.00 1.49174
166.50 1.49009
167.00 1.48797
167.50 1.48624
168.00 1.48563
168.50 1.48513
169.00 1.48471
169.50 1.48439
170.00 1.48417
170.50 1.48405
171.00 1.48402
171.50 1.48319
172.00 1.48210
172.50 1.48133
173.00 1.48097
173.50 1.48077
174.00 1.48068
174.50 1.48070
175.00 1.48059
175.50 1.48051
176.00 1.48024
176.50 1.48009
177.00 1.48004
177.50 1.48016
178.00 1.48025
178.50 1.47999
179.00 1.48020
179.50 1.48055
180.00 1.48102
180.00 1.48102
180.50 1.48055
181.00 1.48020
181.50 1.47999
182.00 1.48025
182.50 1.48016
183.00 1.48004
183.50 1.48009
184.00 1.48024
184.50 1.48051
185.00 1.48059
185.50 1.48070
186.00 1.48068
186.50 1.48077
187.00 1.48097
187.50 1.48133
188.00 1.48210
188.50 1.48319
189.00 1.48402
189.50 1.48405
190.00 1.48417
190.50 1.48439
191.00 1.48471
191.50 1.48513
192.00 1.48563
192.50 1.48624
193.00 1.48797
193.50 1.49009
194.00 1.49174
194.50 1.49038
195.00 1.48907
195.50 1.48782
196.00 1.48661
196.50 1.48546
197.00 1.48437
197.50 1.48333
198.00 1.48352
198.50 1.48329
199.00 1.48125
199.50 1.47605
200.00 1.47073
200.50 1.46542
201.00 1.46012
201.50 1.45482
202.00 1.44954
202.50 1.44426
203.00 1.44071
203.50 1.43794
204.00 1.43190
204.50 1.42571
205.00 1.41468
205.50 1.40359
206.00 1.39245
206.50 1.38125
207.00 1.36999
207.50 1.35900
208.00 1.34812
208.50 1.33719
209.00 1.32432
209.50 1.30541
210.00 1.28639
210.50 1.26727
211.00 1.24884
211.50 1.23046
212.00 1.21198
212.50 1.19339
213.00 1.16717
213.50 1.14041
214.00 1.11500
214.50 1.08943
215.00 1.06370
215.50 1.03587
216.00 1.00225
216.50 0.97199
217.00 0.94168
217.50 0.91116
218.00 0.87951
218.50 0.84096
219.00 0.80220
219.50 0.76325
220.00 0.72463
220.50 0.68659
221.00 0.64843
221.50 0.61004
222.00 0.57148
222.50 0.53452
223.00 0.49742
223.50 0.46051
224.00 0.42616
224.50 0.39169
225.00 0.35632
225.50 0.32584
226.00 0.29735
226.50 0.26953
227.00 0.24715
227.50 0.22449
228.00 0.20128
228.50 0.18098
229.00 0.16433
229.50 0.14802
230.00 0.13343
230.50 0.12043
231.00 0.10846
231.50 0.09876
232.00 0.08926
232.50 0.07988
233.00 0.07072
233.50 0.06463
234.00 0.05854
234.50 0.05392
235.00 0.04935
235.50 0.04480
236.00 0.04025
236.50 0.03571
237.00 0.03137
237.50 0.02793
238.00 0.02450
238.50 0.02264
239.00 0.02086
239.50 0.01905
240.00 0.01720
240.50 0.01535
241.00 0.01351
241.50 0.01183
242.00 0.01094
242.50 0.01005
243.00 0.00916
243.50 0.00827
244.00 0.00738
244.50 0.00651
245.00 0.00582
245.50 0.00539
246.00 0.00496
246.50 0.00452
247.00 0.00409
247.50 0.00365
248.00 0.00321
248.50 0.00288
249.00 0.00266
249.50 0.00246
250.00 0.00226
250.50 0.00206
251.00 0.00186
251.50 0.00166
252.00 0.00146
252.50 0.00129
253.00 0.00119
253.50 0.00111
254.00 0.00103
254.50 0.00095
255.00 0.00086
255.50 0.00078
256.00 0.00070
256.50 0.00062
257.00 0.00058
257.50 0.00054
258.00 0.00050
258.50 0.00047
259.00 0.00043
259.50 0.00039
260.00 0.00035
260.50 0.00033
261.00 0.00031
261.50 0.00028
262.00 0.00026
262.50 0.00024
263.00 0.00022
263.50 0.00020
264.00 0.00019
264.50 0.00017
265.00 0.00016
265.50 0.00014
266.00 0.00013
266.50 0.00011
267.00 0.00010
267.50 0.00009
268.00 0.00008
268.50 0.00007
269.00 0.00007
269.50 0.00006
270.00 0.00005
270.00 0.00005
270.50 0.00006
271.00 0.00007
271.50 0.00007
272.00 0.00008
272.50 0.00009
273.00 0.00010
273.50 0.00011
274.00 0.00013
274.50 0.00014
275.00 0.00016
275.50 0.00017
276.00 0.00019
276.50 0.00020
277.00 0.00022
277.50 0.00024
278.00 0.00026
278.50 0.00028
279.00 0.00031
279.50 0.00033
280.00 0.00035
280.50 0.00039
281.00 0.00043
281.50 0.00047
282.00 0.00050
282.50 0.00054
283.00 0.00058
283.50 0.00062
284.00 0.00070
284.50 0.00078
285.00 0.00086
285.50 0.00095
286.00 0.00103
286.50 0.00111
287.00 0.00119
287.50 0.00129
288.00 0.00146
288.50 0.00166
289.00 0.00186
289.50 0.00206
290.00 0.00226
290.50 0.00246
291.00 0.00266
291.50 0.00288
292.00 0.00321
292.50 0.00365
293.00 0.00409
293.50 0.00452
294.00 0.00496
294.50 0.00539
295.00 0.00582
295.50 0.00651
296.00 0.00738
296.50 0.00827
297.00 0.00916
297.50 0.01005
298.00 0.01094
298.50 0.01183
299.00 0.01351
299.50 0.01535
300.00 0.01720
300.50 0.01905
301.00 0.02086
301.50 0.02264
302.00 0.02450
302.50 0.02793
303.00 0.03137
303.50 0.03571
304.00 0.04025
304.50 0.04480
305.00 0.04935
305.50 0.05392
306.00 0.05854
306.50 0.06463
307.00 0.07072
307.50 0.07988
308.00 0.08926
308.50 0.09876
309.00 0.10846
309.50 0.12043
310.00 0.13343
310.50 0.14802
311.00 0.16433
311.50 0.18098
312.00 0.20128
312.50 0.22449
313.00 0.24715
313.50 0.26953
314.00 0.29735
314.50 0.32584
315.00 0.35632
315.50 0.39169
316.00 0.42616
316.50 0.46051
317.00 0.49742
317.50 0.53452
318.00 0.57148
318.50 0.61004
319.00 0.64843
319.50 0.68659
320.00 0.72463
320.50 0.76325
321.00 0.80220
321.50 0.84096
322.00 0.87951
322.50 0.91116
323.00 0.94168
323.50 0.97199
324.00 1.00225
324.50 1.03587
325.00 1.06370
325.50 1.08943
326.00 1.11500
326.50 1.14041
327.00 1.16717
327.50 1.19339
328.00 1.21198
328.50 1.23046
329.00 1.24884
329.50 1.26727
330.00 1.28639
330.50 1.30541
331.00 1.32432
331.50 1.33719
332.00 1.34812
332.50 1.35900
333.00 1.36999
333.50 1.38125
334.00 1.39245
334.50 1.40359
335.00 1.41468
335.50 1.42571
336.00 1.43190
336.50 1.43794
337.00 1.44071
337.50 1.44426
338.00 1.44954
338.50 1.45482
339.00 1.46012
339.50 1.46542
340.00 1.47073
340.50 1.47605
341.00 1.48125
341.50 1.48329
342.00 1.48352
342.50 1.48333
343.00 1.48437
343.50 1.48546
344.00 1.48661
344.50 1.48782
345.00 1.48907
345.50 1.49038
346.00 1.49174
346.50 1.49009
347.00 1.48797
347.50 1.48624
348.00 1.48563
348.50 1.48513
349.00 1.48471
349.50 1.48439
350.00 1.48417
350.50 1.48405
351.00 1.48402
351.50 1.48319
352.00 1.48210
352.50 1.48133
353.00 1.48097
353.50 1.48077
354.00 1.48068
354.50 1.48070
355.00 1.48059
355.50 1.48051
356.00 1.48024
356.50 1.48009
357.00 1.48004
357.50 1.48016
358.00 1.48025
358.50 1.47999
359.00 1.48020
359.50 1.48055
360.00 1.48102
