phi[deg] B[T]
0.00 1.08936
0.50 1.08927
1.00 1.08926
1.50 1.08945
2.00 1.08974
2.50 1.09006
3.00 1.09018
3.50 1.09038
4.00 1.09071
4.50 1.09132
5.00 1.09183
5.50 1.09235
6.00 1.09296
6.50 1.09369
7.00 1.09451
7.50 1.09488
8.00 1.09541
8.50 1.09624
9.00 1.09714
9.50 1.09811
10.00 1.09916
10.50 1.09999
11.00 1.10017
11.50 1.10083
12.00 1.10185
12.50 1.10292
13.00 1.10404
13.50 1.10595
14.00 1.10765
14.50 1.10752
15.00 1.10743
15.50 1.10739
16.00 1.10739
16.50 1.10743
17.00 1.10752
17.50 1.10765
18.00 1.10922
18.50 1.11179
19.00 1.11341
19.50 1.11160
20.00 1.10914
20.50 1.10665
21.00 1.10413
21.50 1.10158
22.00 1.09901
22.50 1.09640
23.00 1.09377
23.50 1.09112
24.00 1.08962
24.50 1.08838
25.00 1.08710
25.50 1.08195
26.00 1.07310
26.50 1.06419
27.00 1.05522
27.50 1.04619
28.00 1.03710
28.50 1.02794
29.00 1.01940
29.50 1.01505
30.00 1.01060
30.50 1.00126
31.00 0.98917
31.50 0.97697
32.00 0.96422
32.50 0.95050
33.00 0.93667
33.50 0.92273
34.00 0.90803
34.50 0.89116
35.00 0.87419
35.50 0.85712
36.00 0.83996
36.50 0.82118
37.00 0.80273
37.50 0.78458
38.00 0.76632
38.50 0.74794
39.00 0.72779
39.50 0.70491
40.00 0.68192
40.50 0.65881
41.00 0.63734
41.50 0.61711
42.00 0.59498
42.50 0.56914
43.00 0.54316
43.50 0.51874
44.00 0.49692
44.50 0.47502
45.00 0.45306
45.50 0.43222
46.00 0.41132
46.50 0.39036
47.00 0.36897
47.50 0.34746
48.00 0.32591
48.50 0.30680
49.00 0.28890
49.50 0.27094
50.00 0.25377
50.50 0.23814
51.00 0.22249
51.50 0.20683
52.00 0.19299
52.50 0.18309
53.00 0.17319
53.50 0.16327
54.00 0.15323
54.50 0.14293
55.00 0.13263
55.50 0.12233
56.00 0.11202
56.50 0.10248
57.00 0.09714
57.50 0.09180
58.00 0.08646
58.50 0.08111
59.00 0.07615
59.50 0.07148
60.00 0.06682
60.50 0.06217
61.00 0.05753
61.50 0.05289
62.00 0.04826
62.50 0.04401
63.00 0.04154
63.50 0.03907
64.00 0.03660
64.50 0.03413
65.00 0.03166
65.50 0.02918
66.00 0.02754
66.50 0.02594
67.00 0.02434
67.50 0.02275
68.00 0.02115
68.50 0.01957
69.00 0.01798
69.50 0.01674
70.00 0.01556
70.50 0.01438
71.00 0.01320
71.50 0.01231
72.00 0.01170
72.50 0.01109
73.00 0.01048
73.50 0.00988
74.00 0.00927
74.50 0.00866
75.00 0.00805
75.50 0.00745
76.00 0.00684
76.50 0.00624
77.00 0.00577
77.50 0.00549
78.00 0.00520
78.50 0.00491
79.00 0.00462
79.50 0.00433
80.00 0.00404
80.50 0.00377
81.00 0.00352
81.50 0.00328
82.00 0.00303
82.50 0.00284
83.00 0.00273
83.50 0.00262
84.00 0.00251
84.50 0.00241
85.00 0.00230
85.50 0.00219
86.00 0.00207
86.50 0.00199
87.00 0.00195
87.50 0.00190
88.00 0.00185
88.50 0.00181
89.00 0.00176
89.50 0.00172
90.00 0.00167
90.00 0.00167
90.50 0.00172
91.00 0.00176
91.50 0.00181
92.00 0.00185
92.50 0.00190
93.00 0.00195
93.50 0.00199
94.00 0.00207
94.50 0.00219
95.00 0.00230
95.50 0.00241
96.00 0.00251
96.50 0.00262
97.00 0.00273
97.50 0.00284
98.00 0.00303
98.50 0.00328
99.00 0.00352
99.50 0.00377
100.00 0.00404
100.50 0.00433
101.00 0.00462
101.50 0.00491
102.00 0.00520
102.50 0.00549
103.00 0.00577
103.50 0.00624
104.00 0.00684
104.50 0.00745
105.00 0.00805
105.50 0.00866
106.00 0.00927
106.50 0.00988
107.00 0.01048
107.50 0.01109
108.00 0.01170
108.50 0.01231
109.00 0.01320
109.50 0.01438
110.00 0.01556
110.50 0.01674
111.00 0.01798
111.50 0.01957
112.00 0.02115
112.50 0.02275
113.00 0.02434
113.50 0.02594
114.00 0.02754
114.50 0.02918
115.00 0.03166
115.50 0.03413
116.00 0.03660
116.50 0.03907
117.00 0.04154
117.50 0.04401
118.00 0.04826
118.50 0.05289
119.00 0.05753
119.50 0.06217
120.00 0.06682
120.50 0.07148
121.00 0.07615
121.50 0.08111
122.00 0.08646
122.50 0.09180
123.00 0.09714
123.50 0.10248
124.00 0.11202
124.50 0.12233
125.00 0.13263
125.50 0.14293
126.00 0.15323
126.50 0.16327
127.00 0.17319
127.50 0.18309
128.00 0.19299
128.50 0.20683
129.00 0.22249
129.50 0.23814
130.00 0.25377
130.50 0.27094
131.00 0.28890
131.50 0.30680
132.00 0.32591
132.50 0.34746
133.00 0.36897
133.50 0.39036
134.00 0.41132
134.50 0.43222
135.00 0.45306
135.50 0.47502
136.00 0.49692
136.50 0.51874
137.00 0.54316
137.50 0.56914
138.00 0.59498
138.50 0.61711
139.00 0.63734
139.50 0.65881
140.00 0.68192
140.50 0.70491
141.00 0.72779
141.50 0.74794
142.00 0.76632
142.50 0.78458
143.00 0.80273
143.50 0.82118
144.00 0.83996
144.50 0.85712
145.00 0.87419
145.50 0.89116
146.00 0.90803
146.50 0.92273
147.00 0.93667
147.50 0.95050
148.00 0.96422
148.50 0.97697
149.00 0.98917
149.50 1.00126
150.00 1.01060
150.50 1.01505
151.00 1.01940
151.50 1.02794
152.00 1.03710
152.50 1.04619
153.00 1.05522
153.50 1.06419
154.00 1.07310
154.50 1.08195
155.00 1.08710
155.50 1.08838
156.00 1.08962
156.50 1.09112
157.00 1.09377
157.50 1.09640
158.00 1.09901
158.50 1.10158
159.00 1.10413
159.50 1.10665
160.00 1.10914
160.50 1.11160
161.00 1.11341
161.50 1.11179
162.00 1.10922
162.50 1.10765
163.00 1.10752
163.50 1.10743
164.00 1.10739
164.50 1.10739
165.00 1.10743
165.50 1.10752
166.00 1.10765
166.50 1.10595
167.00 1.10404
167.50 1.10292
168.00 1.10185
168.50 1.10083
169.00 1.10017
169.50 1.09999
170.00 1.09916
170.50 1.09811
171.00 1.09714
171.50 1.09624
172.00 1.09541
172.50 1.09488
173.00 1.09451
173.50 1.09369
174.00 1.09296
174.50 1.09235
175.00 1.09183
175.50 1.09132
176.00 1.09071
176.50 1.09038
177.00 1.09018
177.50 1.09006
178.00 1.08974
178.50 1.08945
179.00 1.08926
179.50 1.08927
180.00 1.08936
180.00 1.08936
180.50 1.08927
181.00 1.08926
181.50 1.08945
182.00 1.08974
182.50 1.09006
183.00 1.09018
183.50 1.09038
184.00 1.09071
184.50 1.09132
185.00 1.09183
185.50 1.09235
186.00 1.09296
186.50 1.09369
187.00 1.09451
187.50 1.09488
188.00 1.09541
188.50 1.09624
189.00 1.09714
189.50 1.09811
190.00 1.09916
190.50 1.09999
191.00 1.10017
191.50 1.10083
192.00 1.10185
192.50 1.10292
193.00 1.10404
193.50 1.10595
194.00 1.10765
194.50 1.10752
195.00 1.10743
195.50 1.10739
196.00 1.10739
196.50 1.10743
197.00 1.10752
197.50 1.10765
198.00 1.10922
198.50 1.11179
199.00 1.11341
199.50 1.11160
200.00 1.10914
200.50 1.10665
201.00 1.10413
201.50 1.10158
202.00 1.09901
202.50 1.09640
203.00 1.09377
203.50 1.09112
204.00 1.08962
204.50 1.08838
205.00 1.08710
205.50 1.08195
206.00 1.07310
206.50 1.06419
207.00 1.05522
207.50 1.04619
208.00 1.03710
208.50 1.02794
209.00 1.01940
209.50 1.01505
210.00 1.01060
210.50 1.00126
211.00 0.98917
211.50 0.97697
212.00 0.96422
212.50 0.95050
213.00 0.93667
213.50 0.92273
214.00 0.90803
214.50 0.89116
215.00 0.87419
215.50 0.85712
216.00 0.83996
216.50 0.82118
217.00 0.80273
217.50 0.78458
218.00 0.76632
218.50 0.74794
219.00 0.72779
219.50 0.70491
220.00 0.68192
220.50 0.65881
221.00 0.63734
221.50 0.61711
222.00 0.59498
222.50 0.56914
223.00 0.54316
223.50 0.51874
224.00 0.49692
224.50 0.47502
225.00 0.45306
225.50 0.43222
226.00 0.41132
226.50 0.39036
227.00 0.36897
227.50 0.34746
228.00 0.32591
228.50 0.30680
229.00 0.28890
229.50 0.27094
230.00 0.25377
230.50 0.23814
231.00 0.22249
231.50 0.20683
232.00 0.19299
232.50 0.18309
233.00 0.17319
233.50 0.16327
234.00 0.15323
234.50 0.14293
235.00 0.13263
235.50 0.12233
236.00 0.11202
236.50 0.10248
237.00 0.09714
237.50 0.09180
238.00 0.08646
238.50 0.08111
239.00 0.07615
239.50 0.07148
240.00 0.06682
240.50 0.06217
241.00 0.05753
241.50 0.05289
242.00 0.04826
242.50 0.04401
243.00 0.04154
243.50 0.03907
244.00 0.03660
244.50 0.03413
245.00 0.03166
245.50 0.02918
246.00 0.02754
246.50 0.02594
247.00 0.02434
247.50 0.02275
248.00 0.02115
248.50 0.01957
249.00 0.01798
249.50 0.01674
250.00 0.01556
250.50 0.01438
251.00 0.01320
251.50 0.01231
252.00 0.01170
252.50 0.01109
253.00 0.01048
253.50 0.00988
254.00 0.00927
254.50 0.00866
255.00 0.00805
255.50 0.00745
256.00 0.00684
256.50 0.00624
257.00 0.00577
257.50 0.00549
258.00 0.00520
258.50 0.00491
259.00 0.00462
259.50 0.00433
260.00 0.00404
260.50 0.00377
261.00 0.00352
261.50 0.00328
262.00 0.00303
262.50 0.00284
263.00 0.00273
263.50 0.00262
264.00 0.00251
264.50 0.00241
265.00 0.00230
265.50 0.00219
266.00 0.00207
266.50 0.00199
267.00 0.00195
267.50 0.00190
268.00 0.00185
268.50 0.00181
269.00 0.00176
269.50 0.00172
270.00 0.00167
270.00 0.00167
270.50 0.00172
271.00 0.00176
271.50 0.00181
272.00 0.00185
272.50 0.00190
273.00 0.00195
273.50 0.00199
274.00 0.00207
274.50 0.00219
275.00 0.00230
275.50 0.00241
276.00 0.00251
276.50 0.00262
277.00 0.00273
277.50 0.00284
278.00 0.00303
278.50 0.00328
279.00 0.00352
279.50 0.00377
280.00 0.00404
280.50 0.00433
281.00 0.00462
281.50 0.00491
282.00 0.00520
282.50 0.00549
283.00 0.00577
283.50 0.00624
284.00 0.00684
284.50 0.00745
285.00 0.00805
285.50 0.00866
286.00 0.00927
286.50 0.00988
287.00 0.01048
287.50 0.01109
288.00 0.01170
288.50 0.01231
289.00 0.01320
289.50 0.01438
290.00 0.01556
290.50 0.01674
291.00 0.01798
291.50 0.01957
292.00 0.02115
292.50 0.02275
293.00 0.02434
293.50 0.02594
294.00 0.02754
294.50 0.02918
295.00 0.03166
295.50 0.03413
296.00 0.03660
296.50 0.03907
297.00 0.04154
297.50 0.04401
298.00 0.04826
298.50 0.05289
299.00 0.05753
299.50 0.06217
300.00 0.06682
300.50 0.07148
301.00 0.07615
301.50 0.08111
302.00 0.08646
302.50 0.09180
303.00 0.09714
303.50 0.10248
304.00 0.11202
304.50 0.12233
305.00 0.13263
305.50 0.14293
306.00 0.15323
306.50 0.16327
307.00 0.17319
307.50 0.18309
308.00 0.19299
308.50 0.20683
309.00 0.22249
309.50 0.23814
310.00 0.25377
310.50 0.27094
311.00 0.28890
311.50 0.30680
312.00 0.32591
312.50 0.34746
313.00 0.36897
313.50 0.39036
314.00 0.41132
314.50 0.43222
315.00 0.45306
315.50 0.47502
316.00 0.49692
316.50 0.51874
317.00 0.54316
317.50 0.56914
318.00 0.59498
318.50 0.61711
319.00 0.63734
319.50 0.65881
320.00 0.68192
320.50 0.70491
321.00 0.72779
321.50 0.74794
322.00 0.76632
322.50 0.78458
323.00 0.80273
323.50 0.82118
324.00 0.83996
324.50 0.85712
325.00 0.87419
325.50 0.89116
326.00 0.90803
326.50 0.92273
327.00 0.93667
327.50 0.95050
328.00 0.96422
328.50 0.97697
329.00 0.98917
329.50 1.00126
330.00 1.01060
330.50 1.01505
331.00 1.01940
331.50 1.02794
332.00 1.03710
332.50 1.04619
333.00 1.05522
333.50 1.06419
334.00 1.07310
334.50 1.08195
335.00 1.08710
335.50 1.08838
336.00 1.08962
336.50 1.09112
337.00 1.09377
337.50 1.09640
338.00 1.09901
338.50 1.10158
339.00 1.10413
339.50 1.10665
340.00 1.10914
340.50 1.11160
341.00 1.11341
341.50 1.11179
342.00 1.10922
342.50 1.10765
343.00 1.10752
343.50 1.10743
344.00 1.10739
344.50 1.10739
345.00 1.10743
345.50 1.10752
346.00 1.10765
346.50 1.10595
347.00 1.10404
347.50 1.10292
348.00 1.10185
348.50 1.10083
349.00 1.10017
349.50 1.09999
350.00 1.09916
350.50 1.09811
351.00 1.09714
351.50 1.09624
352.00 1.09541
352.50 1.09488
353.00 1.09451
353.50 1.09369
354.00 1.09296
354.50 1.09235
355.00 1.09183
355.50 1.09132
356.00 1.09071
356.50 1.09038
357.00 1.09018
357.50 1.09006
358.00 1.08974
358.50 1.08945
359.00 1.08926
359.50 1.08927
360.00 1.08936
