phi[deg] B[T]
0.00 1.96901
0.50 1.96899
1.00 1.96912
1.50 1.96941
2.00 1.96984
2.50 1.97050
3.00 1.97078
3.50 1.97190
4.00 1.97317
4.50 1.97457
5.00 1.97611
5.50 1.97780
6.00 1.97979
6.50 1.98192
7.00 1.98419
7.50 1.98505
8.00 1.98590
8.50 1.98723
9.00 1.98914
9.50 1.99118
10.00 1.99334
10.50 1.99307
11.00 1.99207
11.50 1.99176
12.00 1.99191
12.50 1.99216
13.00 1.99251
13.50 1.99274
14.00 1.99159
14.50 1.98959
15.00 1.98513
15.50 1.98138
16.00 1.97940
16.50 1.97750
17.00 1.97568
17.50 1.97281
18.00 1.96656
18.50 1.96038
19.00 1.95452
19.50 1.95100
20.00 1.94752
20.50 1.94228
21.00 1.93429
21.50 1.92634
22.00 1.91723
22.50 1.90667
23.00 1.89613
23.50 1.88560
24.00 1.87198
24.50 1.85766
25.00 1.84337
25.50 1.82895
26.00 1.81186
26.50 1.79516
27.00 1.77859
27.50 1.76205
28.00 1.74456
28.50 1.72586
29.00 1.70700
29.50 1.68704
30.00 1.66710
30.50 1.64717
31.00 1.62539
31.50 1.60260
32.00 1.58191
32.50 1.56122
33.00 1.54053
33.50 1.51860
34.00 1.49506
34.50 1.47151
35.00 1.44713
35.50 1.42184
36.00 1.39656
36.50 1.37129
37.00 1.34574
37.50 1.31957
38.00 1.29397
38.50 1.26836
39.00 1.24277
39.50 1.21700
40.00 1.19111
40.50 1.16625
41.00 1.14139
41.50 1.11652
42.00 1.09134
42.50 1.06717
43.00 1.04367
43.50 1.02028
44.00 0.99716
44.50 0.97405
45.00 0.95071
45.50 0.92833
46.00 0.90647
46.50 0.88458
47.00 0.86349
47.50 0.84306
48.00 0.82153
48.50 0.79919
49.00 0.77902
49.50 0.75915
50.00 0.73893
50.50 0.71751
51.00 0.69827
51.50 0.67897
52.00 0.65962
52.50 0.64011
53.00 0.61762
53.50 0.59687
54.00 0.57687
54.50 0.55680
55.00 0.53666
55.50 0.51623
56.00 0.49389
56.50 0.47363
57.00 0.45329
57.50 0.43286
58.00 0.41241
58.50 0.39275
59.00 0.37302
59.50 0.35125
60.00 0.32941
60.50 0.30751
61.00 0.28554
61.50 0.26400
62.00 0.24798
62.50 0.23213
63.00 0.21622
63.50 0.20027
64.00 0.18426
64.50 0.16747
65.00 0.15644
65.50 0.14563
66.00 0.13480
66.50 0.12392
67.00 0.11292
67.50 0.10191
68.00 0.09315
68.50 0.08708
69.00 0.08101
69.50 0.07493
70.00 0.06874
70.50 0.06254
71.00 0.05634
71.50 0.05051
72.00 0.04690
72.50 0.04353
73.00 0.04017
73.50 0.03681
74.00 0.03345
74.50 0.03009
75.00 0.02769
75.50 0.02583
76.00 0.02397
76.50 0.02212
77.00 0.02027
77.50 0.01835
78.00 0.01642
78.50 0.01518
79.00 0.01419
79.50 0.01319
80.00 0.01220
80.50 0.01121
81.00 0.01022
81.50 0.00925
82.00 0.00856
82.50 0.00799
83.00 0.00746
83.50 0.00692
84.00 0.00638
84.50 0.00590
85.00 0.00562
85.50 0.00534
86.00 0.00505
86.50 0.00476
87.00 0.00446
87.50 0.00436
88.00 0.00425
88.50 0.00413
89.00 0.00401
89.50 0.00389
90.00 0.00377
90.00 0.00377
90.50 0.00389
91.00 0.00401
91.50 0.00413
92.00 0.00425
92.50 0.00436
93.00 0.00446
93.50 0.00476
94.00 0.00505
94.50 0.00534
95.00 0.00562
95.50 0.00590
96.00 0.00638
96.50 0.00692
97.00 0.00746
97.50 0.00799
98.00 0.00856
98.50 0.00925
99.00 0.01022
99.50 0.01121
100.00 0.01220
100.50 0.01319
101.00 0.01419
101.50 0.01518
102.00 0.01642
102.50 0.01835
103.00 0.02027
103.50 0.02212
104.00 0.02397
104.50 0.02583
105.00 0.02769
105.50 0.03009
106.00 0.03345
106.50 0.03681
107.00 0.04017
107.50 0.04353
108.00 0.04690
108.50 0.05051
109.00 0.05634
109.50 0.06254
110.00 0.06874
110.50 0.07493
111.00 0.08101
111.50 0.08708
112.00 0.09315
112.50 0.10191
113.00 0.11292
113.50 0.12392
114.00 0.13480
114.50 0.14563
115.00 0.15644
115.50 0.16747
116.00 0.18426
116.50 0.20027
117.00 0.21622
117.50 0.23213
118.00 0.24798
118.50 0.26400
119.00 0.28554
119.50 0.30751
120.00 0.32941
120.50 0.35125
121.00 0.37302
121.50 0.39275
122.00 0.41241
122.50 0.43286
123.00 0.45329
123.50 0.47363
124.00 0.49389
124.50 0.51623
125.00 0.53666
125.50 0.55680
126.00 0.57687
126.50 0.59687
127.00 0.61762
127.50 0.64011
128.00 0.65962
128.50 0.67897
129.00 0.69827
129.50 0.71751
130.00 0.73893
130.50 0.75915
131.00 0.77902
131.50 0.79919
132.00 0.82153
132.50 0.84306
133.00 0.86349
133.50 0.88458
134.00 0.90647
134.50 0.92833
135.00 0.95071
135.50 0.97405
136.00 0.99716
136.50 1.02028
137.00 1.04367
137.50 1.06717
138.00 1.09134
138.50 1.11652
139.00 1.14139
139.50 1.16625
140.00 1.19111
140.50 1.21700
141.00 1.24277
141.50 1.26836
142.00 1.29397
142.50 1.31957
143.00 1.34574
143.50 1.37129
144.00 1.39656
144.50 1.42184
145.00 1.44713
145.50 1.47151
146.00 1.49506
146.50 1.51860
147.00 1.54053
147.50 1.56122
148.00 1.58191
148.50 1.60260
149.00 1.62539
149.50 1.64717
150.00 1.66710
150.50 1.68704
151.00 1.70700
151.50 1.72586
152.00 1.74456
152.50 1.76205
153.00 1.77859
153.50 1.79516
154.00 1.81186
154.50 1.82895
155.00 1.84337
155.50 1.85766
156.00 1.87198
156.50 1.88560
157.00 1.89613
157.50 1.90667
158.00 1.91723
158.50 1.92634
159.00 1.93429
159.50 1.94228
160.00 1.94752
160.50 1.95100
161.00 1.95452
161.50 1.96038
162.00 1.96656
162.50 1.97281
163.00 1.97568
163.50 1.97750
164.00 1.97940
164.50 1.98138
165.00 1.98513
165.50 1.98959
166.00 1.99159
166.50 1.99274
167.00 1.99251
167.50 1.99216
168.00 1.99191
168.50 1.99176
169.00 1.99207
169.50 1.99307
170.00 1.99334
170.50 1.99118
171.00 1.98914
171.50 1.98723
172.00 1.98590
172.50 1.98505
173.00 1.98419
173.50 1.98192
174.00 1.97979
174.50 1.97780
175.00 1.97611
175.50 1.97457
176.00 1.97317
176.50 1.97190
177.00 1.97078
177.50 1.97050
178.00 1.96984
178.50 1.96941
179.00 1.96912
179.50 1.96899
180.00 1.96901
180.00 1.96901
180.50 1.96899
181.00 1.96912
181.50 1.96941
182.00 1.96984
182.50 1.97050
183.00 1.97078
183.50 1.97190
184.00 1.97317
184.50 1.97457
185.00 1.97611
185.50 1.97780
186.00 1.97979
186.50 1.98192
187.00 1.98419
187.50 1.98505
188.00 1.98590
188.50 1.98723
189.00 1.98914
189.50 1.99118
190.00 1.99334
190.50 1.99307
191.00 1.99207
191.50 1.99176
192.00 1.99191
192.50 1.99216
193.00 1.99251
193.50 1.99274
194.00 1.99159
194.50 1.98959
195.00 1.98513
195.50 1.98138
196.00 1.97940
196.50 1.97750
197.00 1.97568
197.50 1.97281
198.00 1.96656
198.50 1.96038
199.00 1.95452
199.50 1.95100
200.00 1.94752
200.50 1.94228
201.00 1.93429
201.50 1.92634
202.00 1.91723
202.50 1.90667
203.00 1.89613
203.50 1.88560
204.00 1.87198
204.50 1.85766
205.00 1.84337
205.50 1.82895
206.00 1.81186
206.50 1.79516
207.00 1.77859
207.50 1.76205
208.00 1.74456
208.50 1.72586
209.00 1.70700
209.50 1.68704
210.00 1.66710
210.50 1.64717
211.00 1.62539
211.50 1.60260
212.00 1.58191
212.50 1.56122
213.00 1.54053
213.50 1.51860
214.00 1.49506
214.50 1.47151
215.00 1.44713
215.50 1.42184
216.00 1.39656
216.50 1.37129
217.00 1.34574
217.50 1.31957
218.00 1.29397
218.50 1.26836
219.00 1.24277
219.50 1.21700
220.00 1.19111
220.50 1.16625
221.00 1.14139
221.50 1.11652
222.00 1.09134
222.50 1.06717
223.00 1.04367
223.50 1.02028
224.00 0.99716
224.50 0.97405
225.00 0.95071
225.50 0.92833
226.00 0.90647
226.50 0.88458
227.00 0.86349
227.50 0.84306
228.00 0.82153
228.50 0.79919
229.00 0.77902
229.50 0.75915
230.00 0.73893
230.50 0.71751
231.00 0.69827
231.50 0.67897
232.00 0.65962
232.50 0.64011
233.00 0.61762
233.50 0.59687
234.00 0.57687
234.50 0.55680
235.00 0.53666
235.50 0.51623
236.00 0.49389
236.50 0.47363
237.00 0.45329
237.50 0.43286
238.00 0.41241
238.50 0.39275
239.00 0.37302
239.50 0.35125
240.00 0.32941
240.50 0.30751
241.00 0.28554
241.50 0.26400
242.00 0.24798
242.50 0.23213
243.00 0.21622
243.50 0.20027
244.00 0.18426
244.50 0.16747
245.00 0.15644
245.50 0.14563
246.00 0.13480
246.50 0.12392
247.00 0.11292
247.50 0.10191
248.00 0.09315
248.50 0.08708
249.00 0.08101
249.50 0.07493
250.00 0.06874
250.50 0.06254
251.00 0.05634
251.50 0.05051
252.00 0.04690
252.50 0.04353
253.00 0.04017
253.50 0.03681
254.00 0.03345
254.50 0.03009
255.00 0.02769
255.50 0.02583
256.00 0.02397
256.50 0.02212
257.00 0.02027
257.50 0.01835
258.00 0.01642
258.50 0.01518
259.00 0.01419
259.50 0.01319
260.00 0.01220
260.50 0.01121
261.00 0.01022
261.50 0.00925
262.00 0.00856
262.50 0.00799
263.00 0.00746
263.50 0.00692
264.00 0.00638
264.50 0.00590
265.00 0.00562
265.50 0.00534
266.00 0.00505
266.50 0.00476
267.00 0.00446
267.50 0.00436
268.00 0.00425
268.50 0.00413
269.00 0.00401
269.50 0.00389
270.00 0.00377
270.00 0.00377
270.50 0.00389
271.00 0.00401
271.50 0.00413
272.00 0.00425
272.50 0.00436
273.00 0.00446
273.50 0.00476
274.00 0.00505
274.50 0.00534
275.00 0.00562
275.50 0.00590
276.00 0.00638
276.50 0.00692
277.00 0.00746
277.50 0.00799
278.00 0.00856
278.50 0.00925
279.00 0.01022
279.50 0.01121
280.00 0.01220
280.50 0.01319
281.00 0.01419
281.50 0.01518
282.00 0.01642
282.50 0.01835
283.00 0.02027
283.50 0.02212
284.00 0.02397
284.50 0.02583
285.00 0.02769
285.50 0.03009
286.00 0.03345
286.50 0.03681
287.00 0.04017
287.50 0.04353
288.00 0.04690
288.50 0.05051
289.00 0.05634
289.50 0.06254
290.00 0.06874
290.50 0.07493
291.00 0.08101
291.50 0.08708
292.00 0.09315
292.50 0.10191
293.00 0.11292
293.50 0.12392
294.00 0.13480
294.50 0.14563
295.00 0.15644
295.50 0.16747
296.00 0.18426
296.50 0.20027
297.00 0.21622
297.50 0.23213
298.00 0.24798
298.50 0.26400
299.00 0.28554
299.50 0.30751
300.00 0.32941
300.50 0.35125
301.00 0.37302
301.50 0.39275
302.00 0.41241
302.50 0.43286
303.00 0.45329
303.50 0.47363
304.00 0.49389
304.50 0.51623
305.00 0.53666
305.50 0.55680
306.00 0.57687
306.50 0.59687
307.00 0.61762
307.50 0.64011
308.00 0.65962
308.50 0.67897
309.00 0.69827
309.50 0.71751
310.00 0.73893
310.50 0.75915
311.00 0.77902
311.50 0.79919
312.00 0.82153
312.50 0.84306
313.00 0.86349
313.50 0.88458
314.00 0.90647
314.50 0.92833
315.00 0.95071
315.50 0.97405
316.00 0.99716
316.50 1.02028
317.00 1.04367
317.50 1.06717
318.00 1.09134
318.50 1.11652
319.00 1.14139
319.50 1.16625
320.00 1.19111
320.50 1.21700
321.00 1.24277
321.50 1.26836
322.00 1.29397
322.50 1.31957
323.00 1.34574
323.50 1.37129
324.00 1.39656
324.50 1.42184
325.00 1.44713
325.50 1.47151
326.00 1.49506
326.50 1.51860
327.00 1.54053
327.50 1.56122
328.00 1.58191
328.50 1.60260
329.00 1.62539
329.50 1.64717
330.00 1.66710
330.50 1.68704
331.00 1.70700
331.50 1.72586
332.00 1.74456
332.50 1.76205
333.00 1.77859
333.50 1.79516
334.00 1.81186
334.50 1.82895
335.00 1.84337
335.50 1.85766
336.00 1.87198
336.50 1.88560
337.00 1.89613
337.50 1.90667
338.00 1.91723
338.50 1.92634
339.00 1.93429
339.50 1.94228
340.00 1.94752
340.50 1.95100
341.00 1.95452
341.50 1.96038
342.00 1.96656
342.50 1.97281
343.00 1.97568
343.50 1.97750
344.00 1.97940
344.50 1.98138
345.00 1.98513
345.50 1.98959
346.00 1.99159
346.50 1.99274
347.00 1.99251
347.50 1.99216
348.00 1.99191
348.50 1.99176
349.00 1.99207
349.50 1.99307
350.00 1.99334
350.50 1.99118
351.00 1.98914
351.50 1.98723
352.00 1.98590
352.50 1.98505
353.00 1.98419
353.50 1.98192
354.00 1.97979
354.50 1.97780
355.00 1.97611
355.50 1.97457
356.00 1.97317
356.50 1.97190
357.00 1.97078
357.50 1.97050
358.00 1.96984
358.50 1.96941
359.00 1.96912
359.50 1.96899
360.00 1.96901
