phi[deg] B[T]
0.00 2.03055
0.50 2.02972
1.00 2.02902
1.50 2.02846
2.00 2.02804
2.50 2.02797
3.00 2.02712
3.50 2.02678
4.00 2.02656
4.50 2.02648
5.00 2.02653
5.50 2.02671
6.00 2.02636
6.50 2.02612
7.00 2.02602
7.50 2.02510
8.00 2.02421
8.50 2.02356
9.00 2.02319
9.50 2.02295
10.00 2.02283
10.50 2.02066
11.00 2.01789
11.50 2.01575
12.00 2.01402
12.50 2.01240
13.00 2.01089
13.50 2.00929
14.00 2.00650
14.50 2.00296
15.00 1.99720
15.50 1.99215
16.00 1.98887
16.50 1.98568
17.00 1.98257
17.50 1.97848
18.00 1.97122
18.50 1.96403
19.00 1.95719
19.50 1.95274
20.00 1.94834
20.50 1.94236
21.00 1.93389
21.50 1.92547
22.00 1.91584
22.50 1.90471
23.00 1.89361
23.50 1.88252
24.00 1.86880
24.50 1.85448
25.00 1.84020
25.50 1.82580
26.00 1.80860
26.50 1.79209
27.00 1.77581
27.50 1.75955
28.00 1.74225
28.50 1.72362
29.00 1.70490
29.50 1.68550
30.00 1.66612
30.50 1.64675
31.00 1.62528
31.50 1.60268
32.00 1.58270
32.50 1.56271
33.00 1.54271
33.50 1.52124
34.00 1.49786
34.50 1.47446
35.00 1.45047
35.50 1.42584
36.00 1.40120
36.50 1.37656
37.00 1.35137
37.50 1.32496
38.00 1.29957
38.50 1.27417
39.00 1.24875
39.50 1.22292
40.00 1.19641
40.50 1.17126
41.00 1.14609
41.50 1.12086
42.00 1.09436
42.50 1.06911
43.00 1.04469
43.50 1.02006
44.00 0.99491
44.50 0.96971
45.00 0.94442
45.50 0.91951
46.00 0.89524
46.50 0.87091
47.00 0.84671
47.50 0.82261
48.00 0.79783
48.50 0.77254
49.00 0.74864
49.50 0.72490
50.00 0.70107
50.50 0.67707
51.00 0.65451
51.50 0.63190
52.00 0.60924
52.50 0.58647
53.00 0.56265
53.50 0.54041
54.00 0.51884
54.50 0.49722
55.00 0.47553
55.50 0.45376
56.00 0.43183
56.50 0.41202
57.00 0.39215
57.50 0.37221
58.00 0.35231
58.50 0.33383
59.00 0.31529
59.50 0.29629
60.00 0.27724
60.50 0.25815
61.00 0.23901
61.50 0.22022
62.00 0.20659
62.50 0.19312
63.00 0.17963
63.50 0.16609
64.00 0.15253
64.50 0.13866
65.00 0.12952
65.50 0.12053
66.00 0.11154
66.50 0.10250
67.00 0.09336
67.50 0.08420
68.00 0.07690
68.50 0.07191
69.00 0.06691
69.50 0.06190
70.00 0.05681
70.50 0.05170
71.00 0.04660
71.50 0.04180
72.00 0.03884
72.50 0.03606
73.00 0.03329
73.50 0.03052
74.00 0.02775
74.50 0.02498
75.00 0.02300
75.50 0.02147
76.00 0.01994
76.50 0.01842
77.00 0.01689
77.50 0.01530
78.00 0.01372
78.50 0.01269
79.00 0.01187
79.50 0.01105
80.00 0.01024
80.50 0.00942
81.00 0.00860
81.50 0.00780
82.00 0.00723
82.50 0.00676
83.00 0.00632
83.50 0.00587
84.00 0.00542
84.50 0.00503
85.00 0.00479
85.50 0.00456
86.00 0.00432
86.50 0.00408
87.00 0.00383
87.50 0.00374
88.00 0.00365
88.50 0.00355
89.00 0.00345
89.50 0.00335
90.00 0.00325
90.00 0.00325
90.50 0.00335
91.00 0.00345
91.50 0.00355
92.00 0.00365
92.50 0.00374
93.00 0.00383
93.50 0.00408
94.00 0.00432
94.50 0.00456
95.00 0.00479
95.50 0.00503
96.00 0.00542
96.50 0.00587
97.00 0.00632
97.50 0.00676
98.00 0.00723
98.50 0.00780
99.00 0.00860
99.50 0.00942
100.00 0.01024
100.50 0.01105
101.00 0.01187
101.50 0.01269
102.00 0.01372
102.50 0.01530
103.00 0.01689
103.50 0.01842
104.00 0.01994
104.50 0.02147
105.00 0.02300
105.50 0.02498
106.00 0.02775
106.50 0.03052
107.00 0.03329
107.50 0.03606
108.00 0.03884
108.50 0.04180
109.00 0.04660
109.50 0.05170
110.00 0.05681
110.50 0.06190
111.00 0.06691
111.50 0.07191
112.00 0.07690
112.50 0.08420
113.00 0.09336
113.50 0.10250
114.00 0.11154
114.50 0.12053
115.00 0.12952
115.50 0.13866
116.00 0.15253
116.50 0.16609
117.00 0.17963
117.50 0.19312
118.00 0.20659
118.50 0.22022
119.00 0.23901
119.50 0.25815
120.00 0.27724
120.50 0.29629
121.00 0.31529
121.50 0.33383
122.00 0.35231
122.50 0.37221
123.00 0.39215
123.50 0.41202
124.00 0.43183
124.50 0.45376
125.00 0.47553
125.50 0.49722
126.00 0.51884
126.50 0.54041
127.00 0.56265
127.50 0.58647
128.00 0.60924
128.50 0.63190
129.00 0.65451
129.50 0.67707
130.00 0.70107
130.50 0.72490
131.00 0.74864
131.50 0.77254
132.00 0.79783
132.50 0.82261
133.00 0.84671
133.50 0.87091
134.00 0.89524
134.50 0.91951
135.00 0.94442
135.50 0.96971
136.00 0.99491
136.50 1.02006
137.00 1.04469
137.50 1.06911
138.00 1.09436
138.50 1.12086
139.00 1.14609
139.50 1.17126
140.00 1.19641
140.50 1.22292
141.00 1.24875
141.50 1.27417
142.00 1.29957
142.50 1.32496
143.00 1.35137
143.50 1.37656
144.00 1.40120
144.50 1.42584
145.00 1.45047
145.50 1.47446
146.00 1.49786
146.50 1.52124
147.00 1.54271
147.50 1.56271
148.00 1.58270
148.50 1.60268
149.00 1.62528
149.50 1.64675
150.00 1.66612
150.50 1.68550
151.00 1.70490
151.50 1.72362
152.00 1.74225
152.50 1.75955
153.00 1.77581
153.50 1.79209
154.00 1.80860
154.50 1.82580
155.00 1.84020
155.50 1.85448
156.00 1.86880
156.50 1.88252
157.00 1.89361
157.50 1.90471
158.00 1.91584
158.50 1.92547
159.00 1.93389
159.50 1.94236
160.00 1.94834
160.50 1.95274
161.00 1.95719
161.50 1.96403
162.00 1.97122
162.50 1.97848
163.00 1.98257
163.50 1.98568
164.00 1.98887
164.50 1.99215
165.00 1.99720
165.50 2.00296
166.00 2.00650
166.50 2.00929
167.00 2.01089
167.50 2.01240
168.00 2.01402
168.50 2.01575
169.00 2.01789
169.50 2.02066
170.00 2.02283
170.50 2.02295
171.00 2.02319
171.50 2.02356
172.00 2.02421
172.50 2.02510
173.00 2.02602
173.50 2.02612
174.00 2.02636
174.50 2.02671
175.00 2.02653
175.50 2.02648
176.00 2.02656
176.50 2.02678
177.00 2.02712
177.50 2.02797
178.00 2.02804
178.50 2.02846
179.00 2.02902
179.50 2.02972
180.00 2.03055
180.00 2.03055
180.50 2.02972
181.00 2.02902
181.50 2.02846
182.00 2.02804
182.50 2.02797
183.00 2.02712
183.50 2.02678
184.00 2.02656
184.50 2.02648
185.00 2.02653
185.50 2.02671
186.00 2.02636
186.50 2.02612
187.00 2.02602
187.50 2.02510
188.00 2.02421
188.50 2.02356
189.00 2.02319
189.50 2.02295
190.00 2.02283
190.50 2.02066
191.00 2.01789
191.50 2.01575
192.00 2.01402
192.50 2.01240
193.00 2.01089
193.50 2.00929
194.00 2.00650
194.50 2.00296
195.00 1.99720
195.50 1.99215
196.00 1.98887
196.50 1.98568
197.00 1.98257
197.50 1.97848
198.00 1.97122
198.50 1.96403
199.00 1.95719
199.50 1.95274
200.00 1.94834
200.50 1.94236
201.00 1.93389
201.50 1.92547
202.00 1.91584
202.50 1.90471
203.00 1.89361
203.50 1.88252
204.00 1.86880
204.50 1.85448
205.00 1.84020
205.50 1.82580
206.00 1.80860
206.50 1.79209
207.00 1.77581
207.50 1.75955
208.00 1.74225
208.50 1.72362
209.00 1.70490
209.50 1.68550
210.00 1.66612
210.50 1.64675
211.00 1.62528
211.50 1.60268
212.00 1.58270
212.50 1.56271
213.00 1.54271
213.50 1.52124
214.00 1.49786
214.50 1.47446
215.00 1.45047
215.50 1.42584
216.00 1.40120
216.50 1.37656
217.00 1.35137
217.50 1.32496
218.00 1.29957
218.50 1.27417
219.00 1.24875
219.50 1.22292
220.00 1.19641
220.50 1.17126
221.00 1.14609
221.50 1.12086
222.00 1.09436
222.50 1.06911
223.00 1.04469
223.50 1.02006
224.00 0.99491
224.50 0.96971
225.00 0.94442
225.50 0.91951
226.00 0.89524
226.50 0.87091
227.00 0.84671
227.50 0.82261
228.00 0.79783
228.50 0.77254
229.00 0.74864
229.50 0.72490
230.00 0.70107
230.50 0.67707
231.00 0.65451
231.50 0.63190
232.00 0.60924
232.50 0.58647
233.00 0.56265
233.50 0.54041
234.00 0.51884
234.50 0.49722
235.00 0.47553
235.50 0.45376
236.00 0.43183
236.50 0.41202
237.00 0.39215
237.50 0.37221
238.00 0.35231
238.50 0.33383
239.00 0.31529
239.50 0.29629
240.00 0.27724
240.50 0.25815
241.00 0.23901
241.50 0.22022
242.00 0.20659
242.50 0.19312
243.00 0.17963
243.50 0.16609
244.00 0.15253
244.50 0.13866
245.00 0.12952
245.50 0.12053
246.00 0.11154
246.50 0.10250
247.00 0.09336
247.50 0.08420
248.00 0.07690
248.50 0.07191
249.00 0.06691
249.50 0.06190
250.00 0.05681
250.50 0.05170
251.00 0.04660
251.50 0.04180
252.00 0.03884
252.50 0.03606
253.00 0.03329
253.50 0.03052
254.00 0.02775
254.50 0.02498
255.00 0.02300
255.50 0.02147
256.00 0.01994
256.50 0.01842
257.00 0.01689
257.50 0.01530
258.00 0.01372
258.50 0.01269
259.00 0.01187
259.50 0.01105
260.00 0.01024
260.50 0.00942
261.00 0.00860
261.50 0.00780
262.00 0.00723
262.50 0.00676
263.00 0.00632
263.50 0.00587
264.00 0.00542
264.50 0.00503
265.00 0.00479
265.50 0.00456
266.00 0.00432
266.50 0.00408
267.00 0.00383
267.50 0.00374
268.00 0.00365
268.50 0.00355
269.00 0.00345
269.50 0.00335
270.00 0.00325
270.00 0.00325
270.50 0.00335
271.00 0.00345
271.50 0.00355
272.00 0.00365
272.50 0.00374
273.00 0.00383
273.50 0.00408
274.00 0.00432
274.50 0.00456
275.00 0.00479
275.50 0.00503
276.00 0.00542
276.50 0.00587
277.00 0.00632
277.50 0.00676
278.00 0.00723
278.50 0.00780
279.00 0.00860
279.50 0.00942
280.00 0.01024
280.50 0.01105
281.00 0.01187
281.50 0.01269
282.00 0.01372
282.50 0.01530
283.00 0.01689
283.50 0.01842
284.00 0.01994
284.50 0.02147
285.00 0.02300
285.50 0.02498
286.00 0.02775
286.50 0.03052
287.00 0.03329
287.50 0.03606
288.00 0.03884
288.50 0.04180
289.00 0.04660
289.50 0.05170
290.00 0.05681
290.50 0.06190
291.00 0.06691
291.50 0.07191
292.00 0.07690
292.50 0.08420
293.00 0.09336
293.50 0.10250
294.00 0.11154
294.50 0.12053
295.00 0.12952
295.50 0.13866
296.00 0.15253
296.50 0.16609
297.00 0.17963
297.50 0.19312
298.00 0.20659
298.50 0.22022
299.00 0.23901
299.50 0.25815
300.00 0.27724
300.50 0.29629
301.00 0.31529
301.50 0.33383
302.00 0.35231
302.50 0.37221
303.00 0.39215
303.50 0.41202
304.00 0.43183
304.50 0.45376
305.00 0.47553
305.50 0.49722
306.00 0.51884
306.50 0.54041
307.00 0.56265
307.50 0.58647
308.00 0.60924
308.50 0.63190
309.00 0.65451
309.50 0.67707
310.00 0.70107
310.50 0.72490
311.00 0.74864
311.50 0.77254
312.00 0.79783
312.50 0.82261
313.00 0.84671
313.50 0.87091
314.00 0.89524
314.50 0.91951
315.00 0.94442
315.50 0.96971
316.00 0.99491
316.50 1.02006
317.00 1.04469
317.50 1.06911
318.00 1.09436
318.50 1.12086
319.00 1.14609
319.50 1.17126
320.00 1.19641
320.50 1.22292
321.00 1.24875
321.50 1.27417
322.00 1.29957
322.50 1.32496
323.00 1.35137
323.50 1.37656
324.00 1.40120
324.50 1.42584
325.00 1.45047
325.50 1.47446
326.00 1.49786
326.50 1.52124
327.00 1.54271
327.50 1.56271
328.00 1.58270
328.50 1.60268
329.00 1.62528
329.50 1.64675
330.00 1.66612
330.50 1.68550
331.00 1.70490
331.50 1.72362
332.00 1.74225
332.50 1.75955
333.00 1.77581
333.50 1.79209
334.00 1.80860
334.50 1.82580
335.00 1.84020
335.50 1.85448
336.00 1.86880
336.50 1.88252
337.00 1.89361
337.50 1.90471
338.00 1.91584
338.50 1.92547
339.00 1.93389
339.50 1.94236
340.00 1.94834
340.50 1.95274
341.00 1.95719
341.50 1.96403
342.00 1.97122
342.50 1.97848
343.00 1.98257
343.50 1.98568
344.00 1.98887
344.50 1.99215
345.00 1.99720
345.50 2.00296
346.00 2.00650
346.50 2.00929
347.00 2.01089
347.50 2.01240
348.00 2.01402
348.50 2.01575
349.00 2.01789
349.50 2.02066
350.00 2.02283
350.50 2.02295
351.00 2.02319
351.50 2.02356
352.00 2.02421
352.50 2.02510
353.00 2.02602
353.50 2.02612
354.00 2.02636
354.50 2.02671
355.00 2.02653
355.50 2.02648
356.00 2.02656
356.50 2.02678
357.00 2.02712
357.50 2.02797
358.00 2.02804
358.50 2.02846
359.00 2.02902
359.50 2.02972
360.00 2.03055
