phi[deg] B[T]
0.00 1.72996
0.50 1.73012
1.00 1.73042
1.50 1.73086
2.00 1.73145
2.50 1.73217
3.00 1.73327
3.50 1.73462
4.00 1.73611
4.50 1.73772
5.00 1.73946
5.50 1.74146
6.00 1.74381
6.50 1.74629
7.00 1.74889
7.50 1.75039
8.00 1.75155
8.50 1.75319
9.00 1.75520
9.50 1.75733
10.00 1.75956
10.50 1.76150
11.00 1.76047
11.50 1.75954
12.00 1.76021
12.50 1.76106
13.00 1.76200
13.50 1.76273
14.00 1.76109
14.50 1.75954
15.00 1.75807
15.50 1.75582
16.00 1.75238
16.50 1.74901
17.00 1.74564
17.50 1.74136
18.00 1.73715
18.50 1.73302
19.00 1.72895
19.50 1.72496
20.00 1.71986
20.50 1.71170
21.00 1.70385
21.50 1.69607
22.00 1.68832
22.50 1.68063
23.00 1.67298
23.50 1.66537
24.00 1.65221
24.50 1.63863
25.00 1.62481
25.50 1.61052
26.00 1.59625
26.50 1.58201
27.00 1.56781
27.50 1.55364
28.00 1.53570
28.50 1.51723
29.00 1.49878
29.50 1.48120
30.00 1.46481
30.50 1.44843
31.00 1.43206
31.50 1.41479
32.00 1.39573
32.50 1.37669
33.00 1.35766
33.50 1.33712
34.00 1.31579
34.50 1.29446
35.00 1.27314
35.50 1.25247
36.00 1.23186
36.50 1.21126
37.00 1.18912
37.50 1.16657
38.00 1.14402
38.50 1.12149
39.00 1.09857
39.50 1.07663
40.00 1.05495
40.50 1.03328
41.00 1.01161
41.50 0.98893
42.00 0.96723
42.50 0.94669
43.00 0.92614
43.50 0.90553
44.00 0.88490
44.50 0.86426
45.00 0.84307
45.50 0.82203
46.00 0.80231
46.50 0.78254
47.00 0.76279
47.50 0.74330
48.00 0.72378
48.50 0.70368
49.00 0.68309
49.50 0.66375
50.00 0.64437
50.50 0.62495
51.00 0.60501
51.50 0.58546
52.00 0.56693
52.50 0.54834
53.00 0.52968
53.50 0.51152
54.00 0.49377
54.50 0.47596
55.00 0.45771
55.50 0.43848
56.00 0.41919
56.50 0.39984
57.00 0.38082
57.50 0.36173
58.00 0.34258
58.50 0.32336
59.00 0.30425
59.50 0.28808
60.00 0.27186
60.50 0.25560
61.00 0.23872
61.50 0.22148
62.00 0.20420
62.50 0.18688
63.00 0.17183
63.50 0.15901
64.00 0.14615
64.50 0.13326
65.00 0.12125
65.50 0.11118
66.00 0.10226
66.50 0.09443
67.00 0.08658
67.50 0.07873
68.00 0.07086
68.50 0.06503
69.00 0.06041
69.50 0.05579
70.00 0.05117
70.50 0.04661
71.00 0.04240
71.50 0.03819
72.00 0.03398
72.50 0.03075
73.00 0.02867
73.50 0.02660
74.00 0.02453
74.50 0.02248
75.00 0.02043
75.50 0.01839
76.00 0.01634
76.50 0.01490
77.00 0.01379
77.50 0.01268
78.00 0.01156
78.50 0.01054
79.00 0.00967
79.50 0.00880
80.00 0.00794
80.50 0.00731
81.00 0.00674
81.50 0.00618
82.00 0.00566
82.50 0.00525
83.00 0.00484
83.50 0.00443
84.00 0.00407
84.50 0.00378
85.00 0.00349
85.50 0.00332
86.00 0.00316
86.50 0.00299
87.00 0.00283
87.50 0.00267
88.00 0.00257
88.50 0.00250
89.00 0.00243
89.50 0.00236
90.00 0.00229
90.00 0.00229
90.50 0.00236
91.00 0.00243
91.50 0.00250
92.00 0.00257
92.50 0.00267
93.00 0.00283
93.50 0.00299
94.00 0.00316
94.50 0.00332
95.00 0.00349
95.50 0.00378
96.00 0.00407
96.50 0.00443
97.00 0.00484
97.50 0.00525
98.00 0.00566
98.50 0.00618
99.00 0.00674
99.50 0.00731
100.00 0.00794
100.50 0.00880
101.00 0.00967
101.50 0.01054
102.00 0.01156
102.50 0.01268
103.00 0.01379
103.50 0.01490
104.00 0.01634
104.50 0.01839
105.00 0.02043
105.50 0.02248
106.00 0.02453
106.50 0.02660
107.00 0.02867
107.50 0.03075
108.00 0.03398
108.50 0.03819
109.00 0.04240
109.50 0.04661
110.00 0.05117
110.50 0.05579
111.00 0.06041
111.50 0.06503
112.00 0.07086
112.50 0.07873
113.00 0.08658
113.50 0.09443
114.00 0.10226
114.50 0.11118
115.00 0.12125
115.50 0.13326
116.00 0.14615
116.50 0.15901
117.00 0.17183
117.50 0.18688
118.00 0.20420
118.50 0.22148
119.00 0.23872
119.50 0.25560
120.00 0.27186
120.50 0.28808
121.00 0.30425
121.50 0.32336
122.00 0.34258
122.50 0.36173
123.00 0.38082
123.50 0.39984
124.00 0.41919
124.50 0.43848
125.00 0.45771
125.50 0.47596
126.00 0.49377
126.50 0.51152
127.00 0.52968
127.50 0.54834
128.00 0.56693
128.50 0.58546
129.00 0.60501
129.50 0.62495
130.00 0.64437
130.50 0.66375
131.00 0.68309
131.50 0.70368
132.00 0.72378
132.50 0.74330
133.00 0.76279
133.50 0.78254
134.00 0.80231
134.50 0.82203
135.00 0.84307
135.50 0.86426
136.00 0.88490
136.50 0.90553
137.00 0.92614
137.50 0.94669
138.00 0.96723
138.50 0.98893
139.00 1.01161
139.50 1.03328
140.00 1.05495
140.50 1.07663
141.00 1.09857
141.50 1.12149
142.00 1.14402
142.50 1.16657
143.00 1.18912
143.50 1.21126
144.00 1.23186
144.50 1.25247
145.00 1.27314
145.50 1.29446
146.00 1.31579
146.50 1.33712
147.00 1.35766
147.50 1.37669
148.00 1.39573
148.50 1.41479
149.00 1.43206
149.50 1.44843
150.00 1.46481
150.50 1.48120
151.00 1.49878
151.50 1.51723
152.00 1.53570
152.50 1.55364
153.00 1.56781
153.50 1.58201
154.00 1.59625
154.50 1.61052
155.00 1.62481
155.50 1.63863
156.00 1.65221
156.50 1.66537
157.00 1.67298
157.50 1.68063
158.00 1.68832
158.50 1.69607
159.00 1.70385
159.50 1.71170
160.00 1.71986
160.50 1.72496
161.00 1.72895
161.50 1.73302
162.00 1.73715
162.50 1.74136
163.00 1.74564
163.50 1.74901
164.00 1.75238
164.50 1.75582
165.00 1.75807
165.50 1.75954
166.00 1.76109
166.50 1.76273
167.00 1.76200
167.50 1.76106
168.00 1.76021
168.50 1.75954
169.00 1.76047
169.50 1.76150
170.00 1.75956
170.50 1.75733
171.00 1.75520
171.50 1.75319
172.00 1.75155
172.50 1.75039
173.00 1.74889
173.50 1.74629
174.00 1.74381
174.50 1.74146
175.00 1.73946
175.50 1.73772
176.00 1.73611
176.50 1.73462
177.00 1.73327
177.50 1.73217
178.00 1.73145
178.50 1.73086
179.00 1.73042
179.50 1.73012
180.00 1.72996
180.00 1.72996
180.50 1.73012
181.00 1.73042
181.50 1.73086
182.00 1.73145
182.50 1.73217
183.00 1.73327
183.50 1.73462
184.00 1.73611
184.50 1.73772
185.00 1.73946
185.50 1.74146
186.00 1.74381
186.50 1.74629
187.00 1.74889
187.50 1.75039
188.00 1.75155
188.50 1.75319
189.00 1.75520
189.50 1.75733
190.00 1.75956
190.50 1.76150
191.00 1.76047
191.50 1.75954
192.00 1.76021
192.50 1.76106
193.00 1.76200
193.50 1.76273
194.00 1.76109
194.50 1.75954
195.00 1.75807
195.50 1.75582
196.00 1.75238
196.50 1.74901
197.00 1.74564
197.50 1.74136
198.00 1.73715
198.50 1.73302
199.00 1.72895
199.50 1.72496
200.00 1.71986
200.50 1.71170
201.00 1.70385
201.50 1.69607
202.00 1.68832
202.50 1.68063
203.00 1.67298
203.50 1.66537
204.00 1.65221
204.50 1.63863
205.00 1.62481
205.50 1.61052
206.00 1.59625
206.50 1.58201
207.00 1.56781
207.50 1.55364
208.00 1.53570
208.50 1.51723
209.00 1.49878
209.50 1.48120
210.00 1.46481
210.50 1.44843
211.00 1.43206
211.50 1.41479
212.00 1.39573
212.50 1.37669
213.00 1.35766
213.50 1.33712
214.00 1.31579
214.50 1.29446
215.00 1.27314
215.50 1.25247
216.00 1.23186
216.50 1.21126
217.00 1.18912
217.50 1.16657
218.00 1.14402
218.50 1.12149
219.00 1.09857
219.50 1.07663
220.00 1.05495
220.50 1.03328
221.00 1.01161
221.50 0.98893
222.00 0.96723
222.50 0.94669
223.00 0.92614
223.50 0.90553
224.00 0.88490
224.50 0.86426
225.00 0.84307
225.50 0.82203
226.00 0.80231
226.50 0.78254
227.00 0.76279
227.50 0.74330
228.00 0.72378
228.50 0.70368
229.00 0.68309
229.50 0.66375
230.00 0.64437
230.50 0.62495
231.00 0.60501
231.50 0.58546
232.00 0.56693
232.50 0.54834
233.00 0.52968
233.50 0.51152
234.00 0.49377
234.50 0.47596
235.00 0.45771
235.50 0.43848
236.00 0.41919
236.50 0.39984
237.00 0.38082
237.50 0.36173
238.00 0.34258
238.50 0.32336
239.00 0.30425
239.50 0.28808
240.00 0.27186
240.50 0.25560
241.00 0.23872
241.50 0.22148
242.00 0.20420
242.50 0.18688
243.00 0.17183
243.50 0.15901
244.00 0.14615
244.50 0.13326
245.00 0.12125
245.50 0.11118
246.00 0.10226
246.50 0.09443
247.00 0.08658
247.50 0.07873
248.00 0.07086
248.50 0.06503
249.00 0.06041
249.50 0.05579
250.00 0.05117
250.50 0.04661
251.00 0.04240
251.50 0.03819
252.00 0.03398
252.50 0.03075
253.00 0.02867
253.50 0.02660
254.00 0.02453
254.50 0.02248
255.00 0.02043
255.50 0.01839
256.00 0.01634
256.50 0.01490
257.00 0.01379
257.50 0.01268
258.00 0.01156
258.50 0.01054
259.00 0.00967
259.50 0.00880
260.00 0.00794
260.50 0.00731
261.00 0.00674
261.50 0.00618
262.00 0.00566
262.50 0.00525
263.00 0.00484
263.50 0.00443
264.00 0.00407
264.50 0.00378
265.00 0.00349
265.50 0.00332
266.00 0.00316
266.50 0.00299
267.00 0.00283
267.50 0.00267
268.00 0.00257
268.50 0.00250
269.00 0.00243
269.50 0.00236
270.00 0.00229
270.00 0.00229
270.50 0.00236
271.00 0.00243
271.50 0.00250
272.00 0.00257
272.50 0.00267
273.00 0.00283
273.50 0.00299
274.00 0.00316
274.50 0.00332
275.00 0.00349
275.50 0.00378
276.00 0.00407
276.50 0.00443
277.00 0.00484
277.50 0.00525
278.00 0.00566
278.50 0.00618
279.00 0.00674
279.50 0.00731
280.00 0.00794
280.50 0.00880
281.00 0.00967
281.50 0.01054
282.00 0.01156
282.50 0.01268
283.00 0.01379
283.50 0.01490
284.00 0.01634
284.50 0.01839
285.00 0.02043
285.50 0.02248
286.00 0.02453
286.50 0.02660
287.00 0.02867
287.50 0.03075
288.00 0.03398
288.50 0.03819
289.00 0.04240
289.50 0.04661
290.00 0.05117
290.50 0.05579
291.00 0.06041
291.50 0.06503
292.00 0.07086
292.50 0.07873
293.00 0.08658
293.50 0.09443
294.00 0.10226
294.50 0.11118
295.00 0.12125
295.50 0.13326
296.00 0.14615
296.50 0.15901
297.00 0.17183
297.50 0.18688
298.00 0.20420
298.50 0.22148
299.00 0.23872
299.50 0.25560
300.00 0.27186
300.50 0.28808
301.00 0.30425
301.50 0.32336
302.00 0.34258
302.50 0.36173
303.00 0.38082
303.50 0.39984
304.00 0.41919
304.50 0.43848
305.00 0.45771
305.50 0.47596
306.00 0.49377
306.50 0.51152
307.00 0.52968
307.50 0.54834
308.00 0.56693
308.50 0.58546
309.00 0.60501
309.50 0.62495
310.00 0.64437
310.50 0.66375
311.00 0.68309
311.50 0.70368
312.00 0.72378
312.50 0.74330
313.00 0.76279
313.50 0.78254
314.00 0.80231
314.50 0.82203
315.00 0.84307
315.50 0.86426
316.00 0.88490
316.50 0.90553
317.00 0.92614
317.50 0.94669
318.00 0.96723
318.50 0.98893
319.00 1.01161
319.50 1.03328
320.00 1.05495
320.50 1.07663
321.00 1.09857
321.50 1.12149
322.00 1.14402
322.50 1.16657
323.00 1.18912
323.50 1.21126
324.00 1.23186
324.50 1.25247
325.00 1.27314
325.50 1.29446
326.00 1.31579
326.50 1.33712
327.00 1.35766
327.50 1.37669
328.00 1.39573
328.50 1.41479
329.00 1.43206
329.50 1.44843
330.00 1.46481
330.50 1.48120
331.00 1.49878
331.50 1.51723
332.00 1.53570
332.50 1.55364
333.00 1.56781
333.50 1.58201
334.00 1.59625
334.50 1.61052
335.00 1.62481
335.50 1.63863
336.00 1.65221
336.50 1.66537
337.00 1.67298
337.50 1.68063
338.00 1.68832
338.50 1.69607
339.00 1.70385
339.50 1.71170
340.00 1.71986
340.50 1.72496
341.00 1.72895
341.50 1.73302
342.00 1.73715
342.50 1.74136
343.00 1.74564
343.50 1.74901
344.00 1.75238
344.50 1.75582
345.00 1.75807
345.50 1.75954
346.00 1.76109
346.50 1.76273
347.00 1.76200
347.50 1.76106
348.00 1.76021
348.50 1.75954
349.00 1.76047
349.50 1.76150
350.00 1.75956
350.50 1.75733
351.00 1.75520
351.50 1.75319
352.00 1.75155
352.50 1.75039
353.00 1.74889
353.50 1.74629
354.00 1.74381
354.50 1.74146
355.00 1.73946
355.50 1.73772
356.00 1.73611
356.50 1.73462
357.00 1.73327
357.50 1.73217
358.00 1.73145
358.50 1.73086
359.00 1.73042
359.50 1.73012
360.00 1.72996
