phi[deg] B[T]
0.00 2.03106
0.50 2.03023
1.00 2.02954
1.50 2.02898
2.00 2.02855
2.50 2.02849
3.00 2.02763
3.50 2.02729
4.00 2.02708
4.50 2.02699
5.00 2.02704
5.50 2.02722
6.00 2.02687
6.50 2.02664
7.00 2.02653
7.50 2.02561
8.00 2.02472
8.50 2.02407
9.00 2.02370
9.50 2.02345
10.00 2.02333
10.50 2.02117
11.00 2.01839
11.50 2.01625
12.00 2.01452
12.50 2.01290
13.00 2.01139
13.50 2.00978
14.00 2.00700
14.50 2.00345
15.00 1.99769
15.50 1.99265
16.00 1.98937
16.50 1.98617
17.00 1.98305
17.50 1.97897
18.00 1.97171
18.50 1.96452
19.00 1.95759
19.50 1.95311
20.00 1.94868
20.50 1.94285
21.00 1.93455
21.50 1.92630
22.00 1.91640
22.50 1.90518
23.00 1.89398
23.50 1.88281
24.00 1.86929
24.50 1.85501
25.00 1.84075
25.50 1.82647
26.00 1.80916
26.50 1.79249
27.00 1.77616
27.50 1.75986
28.00 1.74252
28.50 1.72407
29.00 1.70542
29.50 1.68602
30.00 1.66663
30.50 1.64726
31.00 1.62568
31.50 1.60311
32.00 1.58312
32.50 1.56313
33.00 1.54314
33.50 1.52164
34.00 1.49824
34.50 1.47481
35.00 1.45086
35.50 1.42628
36.00 1.40168
36.50 1.37708
37.00 1.35195
37.50 1.32546
38.00 1.29997
38.50 1.27459
39.00 1.24919
39.50 1.22344
40.00 1.19668
40.50 1.17152
41.00 1.14634
41.50 1.12114
42.00 1.09470
42.50 1.06938
43.00 1.04496
43.50 1.02031
44.00 0.99515
44.50 0.96995
45.00 0.94465
45.50 0.91973
46.00 0.89544
46.50 0.87109
47.00 0.84689
47.50 0.82280
48.00 0.79807
48.50 0.77277
49.00 0.74873
49.50 0.72499
50.00 0.70115
50.50 0.67713
51.00 0.65454
51.50 0.63188
52.00 0.60917
52.50 0.58632
53.00 0.56251
53.50 0.54043
54.00 0.51883
54.50 0.49718
55.00 0.47546
55.50 0.45367
56.00 0.43177
56.50 0.41195
57.00 0.39207
57.50 0.37212
58.00 0.35220
58.50 0.33370
59.00 0.31515
59.50 0.29613
60.00 0.27706
60.50 0.25794
61.00 0.23878
61.50 0.22000
62.00 0.20643
62.50 0.19301
63.00 0.17954
63.50 0.16605
64.00 0.15252
64.50 0.13862
65.00 0.12920
65.50 0.12024
66.00 0.11128
66.50 0.10230
67.00 0.09317
67.50 0.08403
68.00 0.07667
68.50 0.07168
69.00 0.06668
69.50 0.06168
70.00 0.05659
70.50 0.05149
71.00 0.04639
71.50 0.04157
72.00 0.03859
72.50 0.03582
73.00 0.03304
73.50 0.03028
74.00 0.02751
74.50 0.02475
75.00 0.02277
75.50 0.02124
76.00 0.01971
76.50 0.01818
77.00 0.01666
77.50 0.01507
78.00 0.01349
78.50 0.01246
79.00 0.01165
79.50 0.01083
80.00 0.01001
80.50 0.00920
81.00 0.00838
81.50 0.00758
82.00 0.00701
82.50 0.00654
83.00 0.00610
83.50 0.00566
84.00 0.00522
84.50 0.00482
85.00 0.00459
85.50 0.00435
86.00 0.00412
86.50 0.00388
87.00 0.00363
87.50 0.00354
88.00 0.00345
88.50 0.00335
89.00 0.00325
89.50 0.00316
90.00 0.00306
90.00 0.00306
90.50 0.00316
91.00 0.00325
91.50 0.00335
92.00 0.00345
92.50 0.00354
93.00 0.00363
93.50 0.00388
94.00 0.00412
94.50 0.00435
95.00 0.00459
95.50 0.00482
96.00 0.00522
96.50 0.00566
97.00 0.00610
97.50 0.00654
98.00 0.00701
98.50 0.00758
99.00 0.00838
99.50 0.00920
100.00 0.01001
100.50 0.01083
101.00 0.01165
101.50 0.01246
102.00 0.01349
102.50 0.01507
103.00 0.01666
103.50 0.01818
104.00 0.01971
104.50 0.02124
105.00 0.02277
105.50 0.02475
106.00 0.02751
106.50 0.03028
107.00 0.03304
107.50 0.03582
108.00 0.03859
108.50 0.04157
109.00 0.04639
109.50 0.05149
110.00 0.05659
110.50 0.06168
111.00 0.06668
111.50 0.07168
112.00 0.07667
112.50 0.08403
113.00 0.09317
113.50 0.10230
114.00 0.11128
114.50 0.12024
115.00 0.12920
115.50 0.13862
116.00 0.15252
116.50 0.16605
117.00 0.17954
117.50 0.19301
118.00 0.20643
118.50 0.22000
119.00 0.23878
119.50 0.25794
120.00 0.27706
120.50 0.29613
121.00 0.31515
121.50 0.33370
122.00 0.35220
122.50 0.37212
123.00 0.39207
123.50 0.41195
124.00 0.43177
124.50 0.45367
125.00 0.47546
125.50 0.49718
126.00 0.51883
126.50 0.54043
127.00 0.56251
127.50 0.58632
128.00 0.60917
128.50 0.63188
129.00 0.65454
129.50 0.67713
130.00 0.70115
130.50 0.72499
131.00 0.74873
131.50 0.77277
132.00 0.79807
132.50 0.82280
133.00 0.84689
133.50 0.87109
134.00 0.89544
134.50 0.91973
135.00 0.94465
135.50 0.96995
136.00 0.99515
136.50 1.02031
137.00 1.04496
137.50 1.06938
138.00 1.09470
138.50 1.12114
139.00 1.14634
139.50 1.17152
140.00 1.19668
140.50 1.22344
141.00 1.24919
141.50 1.27459
142.00 1.29997
142.50 1.32546
143.00 1.35195
143.50 1.37708
144.00 1.40168
144.50 1.42628
145.00 1.45086
145.50 1.47481
146.00 1.49824
146.50 1.52164
147.00 1.54314
147.50 1.56313
148.00 1.58312
148.50 1.60311
149.00 1.62568
149.50 1.64726
150.00 1.66663
150.50 1.68602
151.00 1.70542
151.50 1.72407
152.00 1.74252
152.50 1.75986
153.00 1.77616
153.50 1.79249
154.00 1.80916
154.50 1.82647
155.00 1.84075
155.50 1.85501
156.00 1.86929
156.50 1.88281
157.00 1.89398
157.50 1.90518
158.00 1.91640
158.50 1.92630
159.00 1.93455
159.50 1.94285
160.00 1.94868
160.50 1.95311
161.00 1.95759
161.50 1.96452
162.00 1.97171
162.50 1.97897
163.00 1.98305
163.50 1.98617
164.00 1.98937
164.50 1.99265
165.00 1.99769
165.50 2.00345
166.00 2.00700
166.50 2.00978
167.00 2.01139
167.50 2.01290
168.00 2.01452
168.50 2.01625
169.00 2.01839
169.50 2.02117
170.00 2.02333
170.50 2.02345
171.00 2.02370
171.50 2.02407
172.00 2.02472
172.50 2.02561
173.00 2.02653
173.50 2.02664
174.00 2.02687
174.50 2.02722
175.00 2.02704
175.50 2.02699
176.00 2.02708
176.50 2.02729
177.00 2.02763
177.50 2.02849
178.00 2.02855
178.50 2.02898
179.00 2.02954
179.50 2.03023
180.00 2.03106
180.00 2.03106
180.50 2.03023
181.00 2.02954
181.50 2.02898
182.00 2.02855
182.50 2.02849
183.00 2.02763
183.50 2.02729
184.00 2.02708
184.50 2.02699
185.00 2.02704
185.50 2.02722
186.00 2.02687
186.50 2.02664
187.00 2.02653
187.50 2.02561
188.00 2.02472
188.50 2.02407
189.00 2.02370
189.50 2.02345
190.00 2.02333
190.50 2.02117
191.00 2.01839
191.50 2.01625
192.00 2.01452
192.50 2.01290
193.00 2.01139
193.50 2.00978
194.00 2.00700
194.50 2.00345
195.00 1.99769
195.50 1.99265
196.00 1.98937
196.50 1.98617
197.00 1.98305
197.50 1.97897
198.00 1.97171
198.50 1.96452
199.00 1.95759
199.50 1.95311
200.00 1.94868
200.50 1.94285
201.00 1.93455
201.50 1.92630
202.00 1.91640
202.50 1.90518
203.00 1.89398
203.50 1.88281
204.00 1.86929
204.50 1.85501
205.00 1.84075
205.50 1.82647
206.00 1.80916
206.50 1.79249
207.00 1.77616
207.50 1.75986
208.00 1.74252
208.50 1.72407
209.00 1.70542
209.50 1.68602
210.00 1.66663
210.50 1.64726
211.00 1.62568
211.50 1.60311
212.00 1.58312
212.50 1.56313
213.00 1.54314
213.50 1.52164
214.00 1.49824
214.50 1.47481
215.00 1.45086
215.50 1.42628
216.00 1.40168
216.50 1.37708
217.00 1.35195
217.50 1.32546
218.00 1.29997
218.50 1.27459
219.00 1.24919
219.50 1.22344
220.00 1.19668
220.50 1.17152
221.00 1.14634
221.50 1.12114
222.00 1.09470
222.50 1.06938
223.00 1.04496
223.50 1.02031
224.00 0.99515
224.50 0.96995
225.00 0.94465
225.50 0.91973
226.00 0.89544
226.50 0.87109
227.00 0.84689
227.50 0.82280
228.00 0.79807
228.50 0.77277
229.00 0.74873
229.50 0.72499
230.00 0.70115
230.50 0.67713
231.00 0.65454
231.50 0.63188
232.00 0.60917
232.50 0.58632
233.00 0.56251
233.50 0.54043
234.00 0.51883
234.50 0.49718
235.00 0.47546
235.50 0.45367
236.00 0.43177
236.50 0.41195
237.00 0.39207
237.50 0.37212
238.00 0.35220
238.50 0.33370
239.00 0.31515
239.50 0.29613
240.00 0.27706
240.50 0.25794
241.00 0.23878
241.50 0.22000
242.00 0.20643
242.50 0.19301
243.00 0.17954
243.50 0.16605
244.00 0.15252
244.50 0.13862
245.00 0.12920
245.50 0.12024
246.00 0.11128
246.50 0.10230
247.00 0.09317
247.50 0.08403
248.00 0.07667
248.50 0.07168
249.00 0.06668
249.50 0.06168
250.00 0.05659
250.50 0.05149
251.00 0.04639
251.50 0.04157
252.00 0.03859
252.50 0.03582
253.00 0.03304
253.50 0.03028
254.00 0.02751
254.50 0.02475
255.00 0.02277
255.50 0.02124
256.00 0.01971
256.50 0.01818
257.00 0.01666
257.50 0.01507
258.00 0.01349
258.50 0.01246
259.00 0.01165
259.50 0.01083
260.00 0.01001
260.50 0.00920
261.00 0.00838
261.50 0.00758
262.00 0.00701
262.50 0.00654
263.00 0.00610
263.50 0.00566
264.00 0.00522
264.50 0.00482
265.00 0.00459
265.50 0.00435
266.00 0.00412
266.50 0.00388
267.00 0.00363
267.50 0.00354
268.00 0.00345
268.50 0.00335
269.00 0.00325
269.50 0.00316
270.00 0.00306
270.00 0.00306
270.50 0.00316
271.00 0.00325
271.50 0.00335
272.00 0.00345
272.50 0.00354
273.00 0.00363
273.50 0.00388
274.00 0.00412
274.50 0.00435
275.00 0.00459
275.50 0.00482
276.00 0.00522
276.50 0.00566
277.00 0.00610
277.50 0.00654
278.00 0.00701
278.50 0.00758
279.00 0.00838
279.50 0.00920
280.00 0.01001
280.50 0.01083
281.00 0.01165
281.50 0.01246
282.00 0.01349
282.50 0.01507
283.00 0.01666
283.50 0.01818
284.00 0.01971
284.50 0.02124
285.00 0.02277
285.50 0.02475
286.00 0.02751
286.50 0.03028
287.00 0.03304
287.50 0.03582
288.00 0.03859
288.50 0.04157
289.00 0.04639
289.50 0.05149
290.00 0.05659
290.50 0.06168
291.00 0.06668
291.50 0.07168
292.00 0.07667
292.50 0.08403
293.00 0.09317
293.50 0.10230
294.00 0.11128
294.50 0.12024
295.00 0.12920
295.50 0.13862
296.00 0.15252
296.50 0.16605
297.00 0.17954
297.50 0.19301
298.00 0.20643
298.50 0.22000
299.00 0.23878
299.50 0.25794
300.00 0.27706
300.50 0.29613
301.00 0.31515
301.50 0.33370
302.00 0.35220
302.50 0.37212
303.00 0.39207
303.50 0.41195
304.00 0.43177
304.50 0.45367
305.00 0.47546
305.50 0.49718
306.00 0.51883
306.50 0.54043
307.00 0.56251
307.50 0.58632
308.00 0.60917
308.50 0.63188
309.00 0.65454
309.50 0.67713
310.00 0.70115
310.50 0.72499
311.00 0.74873
311.50 0.77277
312.00 0.79807
312.50 0.82280
313.00 0.84689
313.50 0.87109
314.00 0.89544
314.50 0.91973
315.00 0.94465
315.50 0.96995
316.00 0.99515
316.50 1.02031
317.00 1.04496
317.50 1.06938
318.00 1.09470
318.50 1.12114
319.00 1.14634
319.50 1.17152
320.00 1.19668
320.50 1.22344
321.00 1.24919
321.50 1.27459
322.00 1.29997
322.50 1.32546
323.00 1.35195
323.50 1.37708
324.00 1.40168
324.50 1.42628
325.00 1.45086
325.50 1.47481
326.00 1.49824
326.50 1.52164
327.00 1.54314
327.50 1.56313
328.00 1.58312
328.50 1.60311
329.00 1.62568
329.50 1.64726
330.00 1.66663
330.50 1.68602
331.00 1.70542
331.50 1.72407
332.00 1.74252
332.50 1.75986
333.00 1.77616
333.50 1.79249
334.00 1.80916
334.50 1.82647
335.00 1.84075
335.50 1.85501
336.00 1.86929
336.50 1.88281
337.00 1.89398
337.50 1.90518
338.00 1.91640
338.50 1.92630
339.00 1.93455
339.50 1.94285
340.00 1.94868
340.50 1.95311
341.00 1.95759
341.50 1.96452
342.00 1.97171
342.50 1.97897
343.00 1.98305
343.50 1.98617
344.00 1.98937
344.50 1.99265
345.00 1.99769
345.50 2.00345
346.00 2.00700
346.50 2.00978
347.00 2.01139
347.50 2.01290
348.00 2.01452
348.50 2.01625
349.00 2.01839
349.50 2.02117
350.00 2.02333
350.50 2.02345
351.00 2.02370
351.50 2.02407
352.00 2.02472
352.50 2.02561
353.00 2.02653
353.50 2.02664
354.00 2.02687
354.50 2.02722
355.00 2.02704
355.50 2.02699
356.00 2.02708
356.50 2.02729
357.00 2.02763
357.50 2.02849
358.00 2.02855
358.50 2.02898
359.00 2.02954
359.50 2.03023
360.00 2.03106
