phi[deg] B[T]
0.00 1.34076
0.50 1.34007
1.00 1.33946
1.50 1.33893
2.00 1.33819
2.50 1.33760
3.00 1.33709
3.50 1.33626
4.00 1.33565
4.50 1.33561
5.00 1.33598
5.50 1.33690
6.00 1.33790
6.50 1.33880
7.00 1.33964
7.50 1.34200
8.00 1.34475
8.50 1.34758
9.00 1.34958
9.50 1.35086
10.00 1.35277
10.50 1.35480
11.00 1.35689
11.50 1.35905
12.00 1.35995
12.50 1.35888
13.00 1.35789
13.50 1.35695
14.00 1.35606
14.50 1.35497
15.00 1.35344
15.50 1.35196
16.00 1.35053
16.50 1.34918
17.00 1.34776
17.50 1.34715
18.00 1.34731
18.50 1.34752
19.00 1.34776
19.50 1.34723
20.00 1.34548
20.50 1.34377
21.00 1.34521
21.50 1.34681
22.00 1.34541
22.50 1.34318
23.00 1.33989
23.50 1.33550
24.00 1.32989
24.50 1.32078
25.00 1.31167
25.50 1.30255
26.00 1.29362
26.50 1.28419
27.00 1.27304
27.50 1.26189
28.00 1.25075
28.50 1.24012
29.00 1.22972
29.50 1.22015
30.00 1.21058
30.50 1.20103
31.00 1.19149
31.50 1.18070
32.00 1.16868
32.50 1.15889
33.00 1.14906
33.50 1.13921
34.00 1.12884
34.50 1.11297
35.00 1.09706
35.50 1.08137
36.00 1.06418
36.50 1.04618
37.00 1.02676
37.50 1.00407
38.00 0.98423
38.50 0.96453
39.00 0.94293
39.50 0.92211
40.00 0.90233
40.50 0.88210
41.00 0.86322
41.50 0.84443
42.00 0.82629
42.50 0.80845
43.00 0.79100
43.50 0.77337
44.00 0.75632
44.50 0.73923
45.00 0.72191
45.50 0.70383
46.00 0.68614
46.50 0.66747
47.00 0.64813
47.50 0.62876
48.00 0.60812
48.50 0.58787
49.00 0.56629
49.50 0.54496
50.00 0.52381
50.50 0.50214
51.00 0.48071
51.50 0.45958
52.00 0.43849
52.50 0.41695
53.00 0.39546
53.50 0.37529
54.00 0.35524
54.50 0.33504
55.00 0.31485
55.50 0.29366
56.00 0.27171
56.50 0.24978
57.00 0.22787
57.50 0.20462
58.00 0.18047
58.50 0.15662
59.00 0.13682
59.50 0.11699
60.00 0.09712
60.50 0.08365
61.00 0.07171
61.50 0.05974
62.00 0.04811
62.50 0.03677
63.00 0.03177
63.50 0.02839
64.00 0.02403
64.50 0.01952
65.00 0.01500
65.50 0.01263
66.00 0.01095
66.50 0.00966
67.00 0.00859
67.50 0.00752
68.00 0.00676
68.50 0.00605
69.00 0.00533
69.50 0.00492
70.00 0.00463
70.50 0.00434
71.00 0.00406
71.50 0.00378
72.00 0.00354
72.50 0.00343
73.00 0.00332
73.50 0.00317
74.00 0.00303
74.50 0.00288
75.00 0.00278
75.50 0.00269
76.00 0.00259
76.50 0.00248
77.00 0.00238
77.50 0.00229
78.00 0.00220
78.50 0.00211
79.00 0.00201
79.50 0.00192
80.00 0.00183
80.50 0.00173
81.00 0.00164
81.50 0.00155
82.00 0.00146
82.50 0.00138
83.00 0.00129
83.50 0.00120
84.00 0.00111
84.50 0.00103
85.00 0.00094
85.50 0.00085
86.00 0.00076
86.50 0.00067
87.00 0.00059
87.50 0.00050
88.00 0.00042
88.50 0.00033
89.00 0.00027
89.50 0.00022
90.00 0.00018
90.00 0.00018
90.50 0.00022
91.00 0.00027
91.50 0.00033
92.00 0.00042
92.50 0.00050
93.00 0.00059
93.50 0.00067
94.00 0.00076
94.50 0.00085
95.00 0.00094
95.50 0.00103
96.00 0.00111
96.50 0.00120
97.00 0.00129
97.50 0.00138
98.00 0.00146
98.50 0.00155
99.00 0.00164
99.50 0.00173
100.00 0.00183
100.50 0.00192
101.00 0.00201
101.50 0.00211
102.00 0.00220
102.50 0.00229
103.00 0.00238
103.50 0.00248
104.00 0.00259
104.50 0.00269
105.00 0.00278
105.50 0.00288
106.00 0.00303
106.50 0.00317
107.00 0.00332
107.50 0.00343
108.00 0.00354
108.50 0.00378
109.00 0.00406
109.50 0.00434
110.00 0.00463
110.50 0.00492
111.00 0.00533
111.50 0.00605
112.00 0.00676
112.50 0.00752
113.00 0.00859
113.50 0.00966
114.00 0.01095
114.50 0.01263
115.00 0.01500
115.50 0.01952
116.00 0.02403
116.50 0.02839
117.00 0.03177
117.50 0.03677
118.00 0.04811
118.50 0.05974
119.00 0.07171
119.50 0.08365
120.00 0.09712
120.50 0.11699
121.00 0.13682
121.50 0.15662
122.00 0.18047
122.50 0.20462
123.00 0.22787
123.50 0.24978
124.00 0.27171
124.50 0.29366
125.00 0.31485
125.50 0.33504
126.00 0.35524
126.50 0.37529
127.00 0.39546
127.50 0.41695
128.00 0.43849
128.50 0.45958
129.00 0.48071
129.50 0.50214
130.00 0.52381
130.50 0.54496
131.00 0.56629
131.50 0.58787
132.00 0.60812
132.50 0.62876
133.00 0.64813
133.50 0.66747
134.00 0.68614
134.50 0.70383
135.00 0.72191
135.50 0.73923
136.00 0.75632
136.50 0.77337
137.00 0.79100
137.50 0.80845
138.00 0.82629
138.50 0.84443
139.00 0.86322
139.50 0.88210
140.00 0.90233
140.50 0.92211
141.00 0.94293
141.50 0.96453
142.00 0.98423
142.50 1.00407
143.00 1.02676
143.50 1.04618
144.00 1.06418
144.50 1.08137
145.00 1.09706
145.50 1.11297
146.00 1.12884
146.50 1.13921
147.00 1.14906
147.50 1.15889
148.00 1.16868
148.50 1.18070
149.00 1.19149
149.50 1.20103
150.00 1.21058
150.50 1.22015
151.00 1.22972
151.50 1.24012
152.00 1.25075
152.50 1.26189
153.00 1.27304
153.50 1.28419
154.00 1.29362
154.50 1.30255
155.00 1.31167
155.50 1.32078
156.00 1.32989
156.50 1.33550
157.00 1.33989
157.50 1.34318
158.00 1.34541
158.50 1.34681
159.00 1.34521
159.50 1.34377
160.00 1.34548
160.50 1.34723
161.00 1.34776
161.50 1.34752
162.00 1.34731
162.50 1.34715
163.00 1.34776
163.50 1.34918
164.00 1.35053
164.50 1.35196
165.00 1.35344
165.50 1.35497
166.00 1.35606
166.50 1.35695
167.00 1.35789
167.50 1.35888
168.00 1.35995
168.50 1.35905
169.00 1.35689
169.50 1.35480
170.00 1.35277
170.50 1.35086
171.00 1.34958
171.50 1.34758
172.00 1.34475
172.50 1.34200
173.00 1.33964
173.50 1.33880
174.00 1.33790
174.50 1.33690
175.00 1.33598
175.50 1.33561
176.00 1.33565
176.50 1.33626
177.00 1.33709
177.50 1.33760
178.00 1.33819
178.50 1.33893
179.00 1.33946
179.50 1.34007
180.00 1.34076
180.00 1.34076
180.50 1.34007
181.00 1.33946
181.50 1.33893
182.00 1.33819
182.50 1.33760
183.00 1.33709
183.50 1.33626
184.00 1.33565
184.50 1.33561
185.00 1.33598
185.50 1.33690
186.00 1.33790
186.50 1.33880
187.00 1.33964
187.50 1.34200
188.00 1.34475
188.50 1.34758
189.00 1.34958
189.50 1.35086
190.00 1.35277
190.50 1.35480
191.00 1.35689
191.50 1.35905
192.00 1.35995
192.50 1.35888
193.00 1.35789
193.50 1.35695
194.00 1.35606
194.50 1.35497
195.00 1.35344
195.50 1.35196
196.00 1.35053
196.50 1.34918
197.00 1.34776
197.50 1.34715
198.00 1.34731
198.50 1.34752
199.00 1.34776
199.50 1.34723
200.00 1.34548
200.50 1.34377
201.00 1.34521
201.50 1.34681
202.00 1.34541
202.50 1.34318
203.00 1.33989
203.50 1.33550
204.00 1.32989
204.50 1.32078
205.00 1.31167
205.50 1.30255
206.00 1.29362
206.50 1.28419
207.00 1.27304
207.50 1.26189
208.00 1.25075
208.50 1.24012
209.00 1.22972
209.50 1.22015
210.00 1.21058
210.50 1.20103
211.00 1.19149
211.50 1.18070
212.00 1.16868
212.50 1.15889
213.00 1.14906
213.50 1.13921
214.00 1.12884
214.50 1.11297
215.00 1.09706
215.50 1.08137
216.00 1.06418
216.50 1.04618
217.00 1.02676
217.50 1.00407
218.00 0.98423
218.50 0.96453
219.00 0.94293
219.50 0.92211
220.00 0.90233
220.50 0.88210
221.00 0.86322
221.50 0.84443
222.00 0.82629
222.50 0.80845
223.00 0.79100
223.50 0.77337
224.00 0.75632
224.50 0.73923
225.00 0.72191
225.50 0.70383
226.00 0.68614
226.50 0.66747
227.00 0.64813
227.50 0.62876
228.00 0.60812
228.50 0.58787
229.00 0.56629
229.50 0.54496
230.00 0.52381
230.50 0.50214
231.00 0.48071
231.50 0.45958
232.00 0.43849
232.50 0.41695
233.00 0.39546
233.50 0.37529
234.00 0.35524
234.50 0.33504
235.00 0.31485
235.50 0.29366
236.00 0.27171
236.50 0.24978
237.00 0.22787
237.50 0.20462
238.00 0.18047
238.50 0.15662
239.00 0.13682
239.50 0.11699
240.00 0.09712
240.50 0.08365
241.00 0.07171
241.50 0.05974
242.00 0.04811
242.50 0.03677
243.00 0.03177
243.50 0.02839
244.00 0.02403
244.50 0.01952
245.00 0.01500
245.50 0.01263
246.00 0.01095
246.50 0.00966
247.00 0.00859
247.50 0.00752
248.00 0.00676
248.50 0.00605
249.00 0.00533
249.50 0.00492
250.00 0.00463
250.50 0.00434
251.00 0.00406
251.50 0.00378
252.00 0.00354
252.50 0.00343
253.00 0.00332
253.50 0.00317
254.00 0.00303
254.50 0.00288
255.00 0.00278
255.50 0.00269
256.00 0.00259
256.50 0.00248
257.00 0.00238
257.50 0.00229
258.00 0.00220
258.50 0.00211
259.00 0.00201
259.50 0.00192
260.00 0.00183
260.50 0.00173
261.00 0.00164
261.50 0.00155
262.00 0.00146
262.50 0.00138
263.00 0.00129
263.50 0.00120
264.00 0.00111
264.50 0.00103
265.00 0.00094
265.50 0.00085
266.00 0.00076
266.50 0.00067
267.00 0.00059
267.50 0.00050
268.00 0.00042
268.50 0.00033
269.00 0.00027
269.50 0.00022
270.00 0.00018
270.00 0.00018
270.50 0.00022
271.00 0.00027
271.50 0.00033
272.00 0.00042
272.50 0.00050
273.00 0.00059
273.50 0.00067
274.00 0.00076
274.50 0.00085
275.00 0.00094
275.50 0.00103
276.00 0.00111
276.50 0.00120
277.00 0.00129
277.50 0.00138
278.00 0.00146
278.50 0.00155
279.00 0.00164
279.50 0.00173
280.00 0.00183
280.50 0.00192
281.00 0.00201
281.50 0.00211
282.00 0.00220
282.50 0.00229
283.00 0.00238
283.50 0.00248
284.00 0.00259
284.50 0.00269
285.00 0.00278
285.50 0.00288
286.00 0.00303
286.50 0.00317
287.00 0.00332
287.50 0.00343
288.00 0.00354
288.50 0.00378
289.00 0.00406
289.50 0.00434
290.00 0.00463
290.50 0.00492
291.00 0.00533
291.50 0.00605
292.00 0.00676
292.50 0.00752
293.00 0.00859
293.50 0.00966
294.00 0.01095
294.50 0.01263
295.00 0.01500
295.50 0.01952
296.00 0.02403
296.50 0.02839
297.00 0.03177
297.50 0.03677
298.00 0.04811
298.50 0.05974
299.00 0.07171
299.50 0.08365
300.00 0.09712
300.50 0.11699
301.00 0.13682
301.50 0.15662
302.00 0.18047
302.50 0.20462
303.00 0.22787
303.50 0.24978
304.00 0.27171
304.50 0.29366
305.00 0.31485
305.50 0.33504
306.00 0.35524
306.50 0.37529
307.00 0.39546
307.50 0.41695
308.00 0.43849
308.50 0.45958
309.00 0.48071
309.50 0.50214
310.00 0.52381
310.50 0.54496
311.00 0.56629
311.50 0.58787
312.00 0.60812
312.50 0.62876
313.00 0.64813
313.50 0.66747
314.00 0.68614
314.50 0.70383
315.00 0.72191
315.50 0.73923
316.00 0.75632
316.50 0.77337
317.00 0.79100
317.50 0.80845
318.00 0.82629
318.50 0.84443
319.00 0.86322
319.50 0.88210
320.00 0.90233
320.50 0.92211
321.00 0.94293
321.50 0.96453
322.00 0.98423
322.50 1.00407
323.00 1.02676
323.50 1.04618
324.00 1.06418
324.50 1.08137
325.00 1.09706
325.50 1.11297
326.00 1.12884
326.50 1.13921
327.00 1.14906
327.50 1.15889
328.00 1.16868
328.50 1.18070
329.00 1.19149
329.50 1.20103
330.00 1.21058
330.50 1.22015
331.00 1.22972
331.50 1.24012
332.00 1.25075
332.50 1.26189
333.00 1.27304
333.50 1.28419
334.00 1.29362
334.50 1.30255
335.00 1.31167
335.50 1.32078
336.00 1.32989
336.50 1.33550
337.00 1.33989
337.50 1.34318
338.00 1.34541
338.50 1.34681
339.00 1.34521
339.50 1.34377
340.00 1.34548
340.50 1.34723
341.00 1.34776
341.50 1.34752
342.00 1.34731
342.50 1.34715
343.00 1.34776
343.50 1.34918
344.00 1.35053
344.50 1.35196
345.00 1.35344
345.50 1.35497
346.00 1.35606
346.50 1.35695
347.00 1.35789
347.50 1.35888
348.00 1.35995
348.50 1.35905
349.00 1.35689
349.50 1.35480
350.00 1.35277
350.50 1.35086
351.00 1.34958
351.50 1.34758
352.00 1.34475
352.50 1.34200
353.00 1.33964
353.50 1.33880
354.00 1.33790
354.50 1.33690
355.00 1.33598
355.50 1.33561
356.00 1.33565
356.50 1.33626
357.00 1.33709
357.50 1.33760
358.00 1.33819
358.50 1.33893
359.00 1.33946
359.50 1.34007
360.00 1.34076
