phi[deg] B[T]
0.00 2.03090
0.50 2.03007
1.00 2.02937
1.50 2.02881
2.00 2.02839
2.50 2.02832
3.00 2.02747
3.50 2.02713
4.00 2.02691
4.50 2.02683
5.00 2.02688
5.50 2.02706
6.00 2.02671
6.50 2.02647
7.00 2.02637
7.50 2.02545
8.00 2.02456
8.50 2.02391
9.00 2.02354
9.50 2.02329
10.00 2.02317
10.50 2.02101
11.00 2.01824
11.50 2.01610
12.00 2.01437
12.50 2.01275
13.00 2.01124
13.50 2.00963
14.00 2.00685
14.50 2.00330
15.00 1.99754
15.50 1.99248
16.00 1.98921
16.50 1.98602
17.00 1.98291
17.50 1.97881
18.00 1.97156
18.50 1.96437
19.00 1.95752
19.50 1.95307
20.00 1.94867
20.50 1.94268
21.00 1.93421
21.50 1.92579
22.00 1.91616
22.50 1.90503
23.00 1.89392
23.50 1.88284
24.00 1.86911
24.50 1.85479
25.00 1.84051
25.50 1.82610
26.00 1.80890
26.50 1.79239
27.00 1.77610
27.50 1.75984
28.00 1.74254
28.50 1.72391
29.00 1.70519
29.50 1.68578
30.00 1.66640
30.50 1.64703
31.00 1.62556
31.50 1.60295
32.00 1.58296
32.50 1.56297
33.00 1.54297
33.50 1.52150
34.00 1.49812
34.50 1.47471
35.00 1.45072
35.50 1.42608
36.00 1.40144
36.50 1.37679
37.00 1.35160
37.50 1.32519
38.00 1.29979
38.50 1.27438
39.00 1.24896
39.50 1.22312
40.00 1.19661
40.50 1.17146
41.00 1.14629
41.50 1.12105
42.00 1.09454
42.50 1.06929
43.00 1.04487
43.50 1.02023
44.00 0.99507
44.50 0.96987
45.00 0.94457
45.50 0.91966
46.00 0.89538
46.50 0.87105
47.00 0.84684
47.50 0.82273
48.00 0.79794
48.50 0.77265
49.00 0.74874
49.50 0.72499
50.00 0.70116
50.50 0.67714
51.00 0.65458
51.50 0.63196
52.00 0.60929
52.50 0.58652
53.00 0.56268
53.50 0.54043
54.00 0.51886
54.50 0.49722
55.00 0.47552
55.50 0.45375
56.00 0.43180
56.50 0.41199
57.00 0.39211
57.50 0.37216
58.00 0.35225
58.50 0.33376
59.00 0.31521
59.50 0.29620
60.00 0.27715
60.50 0.25805
61.00 0.23890
61.50 0.22010
62.00 0.20646
62.50 0.19299
63.00 0.17949
63.50 0.16595
64.00 0.15238
64.50 0.13852
65.00 0.12937
65.50 0.12038
66.00 0.11139
66.50 0.10235
67.00 0.09320
67.50 0.08404
68.00 0.07674
68.50 0.07175
69.00 0.06674
69.50 0.06174
70.00 0.05664
70.50 0.05154
71.00 0.04644
71.50 0.04164
72.00 0.03867
72.50 0.03590
73.00 0.03313
73.50 0.03035
74.00 0.02759
74.50 0.02482
75.00 0.02285
75.50 0.02132
76.00 0.01979
76.50 0.01826
77.00 0.01673
77.50 0.01515
78.00 0.01356
78.50 0.01254
79.00 0.01172
79.50 0.01090
80.00 0.01009
80.50 0.00927
81.00 0.00845
81.50 0.00765
82.00 0.00709
82.50 0.00661
83.00 0.00617
83.50 0.00573
84.00 0.00528
84.50 0.00489
85.00 0.00465
85.50 0.00442
86.00 0.00419
86.50 0.00394
87.00 0.00369
87.50 0.00361
88.00 0.00352
88.50 0.00342
89.00 0.00332
89.50 0.00322
90.00 0.00312
90.00 0.00312
90.50 0.00322
91.00 0.00332
91.50 0.00342
92.00 0.00352
92.50 0.00361
93.00 0.00369
93.50 0.00394
94.00 0.00419
94.50 0.00442
95.00 0.00465
95.50 0.00489
96.00 0.00528
96.50 0.00573
97.00 0.00617
97.50 0.00661
98.00 0.00709
98.50 0.00765
99.00 0.00845
99.50 0.00927
100.00 0.01009
100.50 0.01090
101.00 0.01172
101.50 0.01254
102.00 0.01356
102.50 0.01515
103.00 0.01673
103.50 0.01826
104.00 0.01979
104.50 0.02132
105.00 0.02285
105.50 0.02482
106.00 0.02759
106.50 0.03035
107.00 0.03313
107.50 0.03590
108.00 0.03867
108.50 0.04164
109.00 0.04644
109.50 0.05154
110.00 0.05664
110.50 0.06174
111.00 0.06674
111.50 0.07175
112.00 0.07674
112.50 0.08404
113.00 0.09320
113.50 0.10235
114.00 0.11139
114.50 0.12038
115.00 0.12937
115.50 0.13852
116.00 0.15238
116.50 0.16595
117.00 0.17949
117.50 0.19299
118.00 0.20646
118.50 0.22010
119.00 0.23890
119.50 0.25805
120.00 0.27715
120.50 0.29620
121.00 0.31521
121.50 0.33376
122.00 0.35225
122.50 0.37216
123.00 0.39211
123.50 0.41199
124.00 0.43180
124.50 0.45375
125.00 0.47552
125.50 0.49722
126.00 0.51886
126.50 0.54043
127.00 0.56268
127.50 0.58652
128.00 0.60929
128.50 0.63196
129.00 0.65458
129.50 0.67714
130.00 0.70116
130.50 0.72499
131.00 0.74874
131.50 0.77265
132.00 0.79794
132.50 0.82273
133.00 0.84684
133.50 0.87105
134.00 0.89538
134.50 0.91966
135.00 0.94457
135.50 0.96987
136.00 0.99507
136.50 1.02023
137.00 1.04487
137.50 1.06929
138.00 1.09454
138.50 1.12105
139.00 1.14629
139.50 1.17146
140.00 1.19661
140.50 1.22312
141.00 1.24896
141.50 1.27438
142.00 1.29979
142.50 1.32519
143.00 1.35160
143.50 1.37679
144.00 1.40144
144.50 1.42608
145.00 1.45072
145.50 1.47471
146.00 1.49812
146.50 1.52150
147.00 1.54297
147.50 1.56297
148.00 1.58296
148.50 1.60295
149.00 1.62556
149.50 1.64703
150.00 1.66640
150.50 1.68578
151.00 1.70519
151.50 1.72391
152.00 1.74254
152.50 1.75984
153.00 1.77610
153.50 1.79239
154.00 1.80890
154.50 1.82610
155.00 1.84051
155.50 1.85479
156.00 1.86911
156.50 1.88284
157.00 1.89392
157.50 1.90503
158.00 1.91616
158.50 1.92579
159.00 1.93421
159.50 1.94268
160.00 1.94867
160.50 1.95307
161.00 1.95752
161.50 1.96437
162.00 1.97156
162.50 1.97881
163.00 1.98291
163.50 1.98602
164.00 1.98921
164.50 1.99248
165.00 1.99754
165.50 2.00330
166.00 2.00685
166.50 2.00963
167.00 2.01124
167.50 2.01275
168.00 2.01437
168.50 2.01610
169.00 2.01824
169.50 2.02101
170.00 2.02317
170.50 2.02329
171.00 2.02354
171.50 2.02391
172.00 2.02456
172.50 2.02545
173.00 2.02637
173.50 2.02647
174.00 2.02671
174.50 2.02706
175.00 2.02688
175.50 2.02683
176.00 2.02691
176.50 2.02713
177.00 2.02747
177.50 2.02832
178.00 2.02839
178.50 2.02881
179.00 2.02937
179.50 2.03007
180.00 2.03090
180.00 2.03090
180.50 2.03007
181.00 2.02937
181.50 2.02881
182.00 2.02839
182.50 2.02832
183.00 2.02747
183.50 2.02713
184.00 2.02691
184.50 2.02683
185.00 2.02688
185.50 2.02706
186.00 2.02671
186.50 2.02647
187.00 2.02637
187.50 2.02545
188.00 2.02456
188.50 2.02391
189.00 2.02354
189.50 2.02329
190.00 2.02317
190.50 2.02101
191.00 2.01824
191.50 2.01610
192.00 2.01437
192.50 2.01275
193.00 2.01124
193.50 2.00963
194.00 2.00685
194.50 2.00330
195.00 1.99754
195.50 1.99248
196.00 1.98921
196.50 1.98602
197.00 1.98291
197.50 1.97881
198.00 1.97156
198.50 1.96437
199.00 1.95752
199.50 1.95307
200.00 1.94867
200.50 1.94268
201.00 1.93421
201.50 1.92579
202.00 1.91616
202.50 1.90503
203.00 1.89392
203.50 1.88284
204.00 1.86911
204.50 1.85479
205.00 1.84051
205.50 1.82610
206.00 1.80890
206.50 1.79239
207.00 1.77610
207.50 1.75984
208.00 1.74254
208.50 1.72391
209.00 1.70519
209.50 1.68578
210.00 1.66640
210.50 1.64703
211.00 1.62556
211.50 1.60295
212.00 1.58296
212.50 1.56297
213.00 1.54297
213.50 1.52150
214.00 1.49812
214.50 1.47471
215.00 1.45072
215.50 1.42608
216.00 1.40144
216.50 1.37679
217.00 1.35160
217.50 1.32519
218.00 1.29979
218.50 1.27438
219.00 1.24896
219.50 1.22312
220.00 1.19661
220.50 1.17146
221.00 1.14629
221.50 1.12105
222.00 1.09454
222.50 1.06929
223.00 1.04487
223.50 1.02023
224.00 0.99507
224.50 0.96987
225.00 0.94457
225.50 0.91966
226.00 0.89538
226.50 0.87105
227.00 0.84684
227.50 0.82273
228.00 0.79794
228.50 0.77265
229.00 0.74874
229.50 0.72499
230.00 0.70116
230.50 0.67714
231.00 0.65458
231.50 0.63196
232.00 0.60929
232.50 0.58652
233.00 0.56268
233.50 0.54043
234.00 0.51886
234.50 0.49722
235.00 0.47552
235.50 0.45375
236.00 0.43180
236.50 0.41199
237.00 0.39211
237.50 0.37216
238.00 0.35225
238.50 0.33376
239.00 0.31521
239.50 0.29620
240.00 0.27715
240.50 0.25805
241.00 0.23890
241.50 0.22010
242.00 0.20646
242.50 0.19299
243.00 0.17949
243.50 0.16595
244.00 0.15238
244.50 0.13852
245.00 0.12937
245.50 0.12038
246.00 0.11139
246.50 0.10235
247.00 0.09320
247.50 0.08404
248.00 0.07674
248.50 0.07175
249.00 0.06674
249.50 0.06174
250.00 0.05664
250.50 0.05154
251.00 0.04644
251.50 0.04164
252.00 0.03867
252.50 0.03590
253.00 0.03313
253.50 0.03035
254.00 0.02759
254.50 0.02482
255.00 0.02285
255.50 0.02132
256.00 0.01979
256.50 0.01826
257.00 0.01673
257.50 0.01515
258.00 0.01356
258.50 0.01254
259.00 0.01172
259.50 0.01090
260.00 0.01009
260.50 0.00927
261.00 0.00845
261.50 0.00765
262.00 0.00709
262.50 0.00661
263.00 0.00617
263.50 0.00573
264.00 0.00528
264.50 0.00489
265.00 0.00465
265.50 0.00442
266.00 0.00419
266.50 0.00394
267.00 0.00369
267.50 0.00361
268.00 0.00352
268.50 0.00342
269.00 0.00332
269.50 0.00322
270.00 0.00312
270.00 0.00312
270.50 0.00322
271.00 0.00332
271.50 0.00342
272.00 0.00352
272.50 0.00361
273.00 0.00369
273.50 0.00394
274.00 0.00419
274.50 0.00442
275.00 0.00465
275.50 0.00489
276.00 0.00528
276.50 0.00573
277.00 0.00617
277.50 0.00661
278.00 0.00709
278.50 0.00765
279.00 0.00845
279.50 0.00927
280.00 0.01009
280.50 0.01090
281.00 0.01172
281.50 0.01254
282.00 0.01356
282.50 0.01515
283.00 0.01673
283.50 0.01826
284.00 0.01979
284.50 0.02132
285.00 0.02285
285.50 0.02482
286.00 0.02759
286.50 0.03035
287.00 0.03313
287.50 0.03590
288.00 0.03867
288.50 0.04164
289.00 0.04644
289.50 0.05154
290.00 0.05664
290.50 0.06174
291.00 0.06674
291.50 0.07175
292.00 0.07674
292.50 0.08404
293.00 0.09320
293.50 0.10235
294.00 0.11139
294.50 0.12038
295.00 0.12937
295.50 0.13852
296.00 0.15238
296.50 0.16595
297.00 0.17949
297.50 0.19299
298.00 0.20646
298.50 0.22010
299.00 0.23890
299.50 0.25805
300.00 0.27715
300.50 0.29620
301.00 0.31521
301.50 0.33376
302.00 0.35225
302.50 0.37216
303.00 0.39211
303.50 0.41199
304.00 0.43180
304.50 0.45375
305.00 0.47552
305.50 0.49722
306.00 0.51886
306.50 0.54043
307.00 0.56268
307.50 0.58652
308.00 0.60929
308.50 0.63196
309.00 0.65458
309.50 0.67714
310.00 0.70116
310.50 0.72499
311.00 0.74874
311.50 0.77265
312.00 0.79794
312.50 0.82273
313.00 0.84684
313.50 0.87105
314.00 0.89538
314.50 0.91966
315.00 0.94457
315.50 0.96987
316.00 0.99507
316.50 1.02023
317.00 1.04487
317.50 1.06929
318.00 1.09454
318.50 1.12105
319.00 1.14629
319.50 1.17146
320.00 1.19661
320.50 1.22312
321.00 1.24896
321.50 1.27438
322.00 1.29979
322.50 1.32519
323.00 1.35160
323.50 1.37679
324.00 1.40144
324.50 1.42608
325.00 1.45072
325.50 1.47471
326.00 1.49812
326.50 1.52150
327.00 1.54297
327.50 1.56297
328.00 1.58296
328.50 1.60295
329.00 1.62556
329.50 1.64703
330.00 1.66640
330.50 1.68578
331.00 1.70519
331.50 1.72391
332.00 1.74254
332.50 1.75984
333.00 1.77610
333.50 1.79239
334.00 1.80890
334.50 1.82610
335.00 1.84051
335.50 1.85479
336.00 1.86911
336.50 1.88284
337.00 1.89392
337.50 1.90503
338.00 1.91616
338.50 1.92579
339.00 1.93421
339.50 1.94268
340.00 1.94867
340.50 1.95307
341.00 1.95752
341.50 1.96437
342.00 1.97156
342.50 1.97881
343.00 1.98291
343.50 1.98602
344.00 1.98921
344.50 1.99248
345.00 1.99754
345.50 2.00330
346.00 2.00685
346.50 2.00963
347.00 2.01124
347.50 2.01275
348.00 2.01437
348.50 2.01610
349.00 2.01824
349.50 2.02101
350.00 2.02317
350.50 2.02329
351.00 2.02354
351.50 2.02391
352.00 2.02456
352.50 2.02545
353.00 2.02637
353.50 2.02647
354.00 2.02671
354.50 2.02706
355.00 2.02688
355.50 2.02683
356.00 2.02691
356.50 2.02713
357.00 2.02747
357.50 2.02832
358.00 2.02839
358.50 2.02881
359.00 2.02937
359.50 2.03007
360.00 2.03090
