phi[deg] B[T]
0.00 1.96286
0.50 1.96235
1.00 1.96196
1.50 1.96171
2.00 1.96159
2.50 1.96174
3.00 1.96108
3.50 1.96113
4.00 1.96131
4.50 1.96161
5.00 1.96203
5.50 1.96257
6.00 1.96286
6.50 1.96326
7.00 1.96379
7.50 1.96288
8.00 1.96193
8.50 1.96126
9.00 1.96089
9.50 1.96064
10.00 1.96049
10.50 1.95775
11.00 1.95420
11.50 1.95094
12.00 1.94789
12.50 1.94494
13.00 1.94208
13.50 1.93913
14.00 1.93509
14.50 1.93016
15.00 1.92267
15.50 1.91572
16.00 1.91009
16.50 1.90455
17.00 1.89907
17.50 1.89279
18.00 1.88387
18.50 1.87502
19.00 1.86643
19.50 1.85960
20.00 1.85281
20.50 1.84475
21.00 1.83471
21.50 1.82472
22.00 1.81376
22.50 1.80159
23.00 1.78945
23.50 1.77734
24.00 1.76322
24.50 1.74866
25.00 1.73413
25.50 1.71951
26.00 1.70241
26.50 1.68621
27.00 1.67031
27.50 1.65443
28.00 1.63757
28.50 1.61945
29.00 1.60129
29.50 1.58278
30.00 1.56430
30.50 1.54584
31.00 1.52534
31.50 1.50373
32.00 1.48460
32.50 1.46547
33.00 1.44634
33.50 1.42584
34.00 1.40355
34.50 1.38125
35.00 1.35814
35.50 1.33414
36.00 1.31014
36.50 1.28615
37.00 1.26188
37.50 1.23698
38.00 1.21249
38.50 1.18801
39.00 1.16353
39.50 1.13892
40.00 1.11424
40.50 1.09047
41.00 1.06670
41.50 1.04292
42.00 1.01899
42.50 0.99597
43.00 0.97357
43.50 0.95130
44.00 0.92940
44.50 0.90750
45.00 0.88538
45.50 0.86427
46.00 0.84363
46.50 0.82296
47.00 0.80310
47.50 0.78390
48.00 0.76370
48.50 0.74273
49.00 0.72387
49.50 0.70530
50.00 0.68640
50.50 0.66638
51.00 0.64848
51.50 0.63052
52.00 0.61252
52.50 0.59436
53.00 0.57342
53.50 0.55415
54.00 0.53560
54.50 0.51698
55.00 0.49830
55.50 0.47935
56.00 0.45860
56.50 0.43982
57.00 0.42097
57.50 0.40204
58.00 0.38308
58.50 0.36482
59.00 0.34650
59.50 0.32629
60.00 0.30602
60.50 0.28569
61.00 0.26530
61.50 0.24531
62.00 0.23043
62.50 0.21570
63.00 0.20093
63.50 0.18611
64.00 0.17124
64.50 0.15563
65.00 0.14539
65.50 0.13534
66.00 0.12528
66.50 0.11516
67.00 0.10494
67.50 0.09471
68.00 0.08657
68.50 0.08093
69.00 0.07528
69.50 0.06963
70.00 0.06388
70.50 0.05812
71.00 0.05236
71.50 0.04694
72.00 0.04358
72.50 0.04045
73.00 0.03732
73.50 0.03420
74.00 0.03108
74.50 0.02796
75.00 0.02572
75.50 0.02400
76.00 0.02227
76.50 0.02055
77.00 0.01882
77.50 0.01704
78.00 0.01525
78.50 0.01409
79.00 0.01317
79.50 0.01225
80.00 0.01133
80.50 0.01041
81.00 0.00948
81.50 0.00859
82.00 0.00794
82.50 0.00741
83.00 0.00691
83.50 0.00641
84.00 0.00591
84.50 0.00547
85.00 0.00520
85.50 0.00494
86.00 0.00468
86.50 0.00441
87.00 0.00413
87.50 0.00403
88.00 0.00393
88.50 0.00381
89.00 0.00370
89.50 0.00359
90.00 0.00348
90.00 0.00348
90.50 0.00359
91.00 0.00370
91.50 0.00381
92.00 0.00393
92.50 0.00403
93.00 0.00413
93.50 0.00441
94.00 0.00468
94.50 0.00494
95.00 0.00520
95.50 0.00547
96.00 0.00591
96.50 0.00641
97.00 0.00691
97.50 0.00741
98.00 0.00794
98.50 0.00859
99.00 0.00948
99.50 0.01041
100.00 0.01133
100.50 0.01225
101.00 0.01317
101.50 0.01409
102.00 0.01525
102.50 0.01704
103.00 0.01882
103.50 0.02055
104.00 0.02227
104.50 0.02400
105.00 0.02572
105.50 0.02796
106.00 0.03108
106.50 0.03420
107.00 0.03732
107.50 0.04045
108.00 0.04358
108.50 0.04694
109.00 0.05236
109.50 0.05812
110.00 0.06388
110.50 0.06963
111.00 0.07528
111.50 0.08093
112.00 0.08657
112.50 0.09471
113.00 0.10494
113.50 0.11516
114.00 0.12528
114.50 0.13534
115.00 0.14539
115.50 0.15563
116.00 0.17124
116.50 0.18611
117.00 0.20093
117.50 0.21570
118.00 0.23043
118.50 0.24531
119.00 0.26530
119.50 0.28569
120.00 0.30602
120.50 0.32629
121.00 0.34650
121.50 0.36482
122.00 0.38308
122.50 0.40204
123.00 0.42097
123.50 0.43982
124.00 0.45860
124.50 0.47935
125.00 0.49830
125.50 0.51698
126.00 0.53560
126.50 0.55415
127.00 0.57342
127.50 0.59436
128.00 0.61252
128.50 0.63052
129.00 0.64848
129.50 0.66638
130.00 0.68640
130.50 0.70530
131.00 0.72387
131.50 0.74273
132.00 0.76370
132.50 0.78390
133.00 0.80310
133.50 0.82296
134.00 0.84363
134.50 0.86427
135.00 0.88538
135.50 0.90750
136.00 0.92940
136.50 0.95130
137.00 0.97357
137.50 0.99597
138.00 1.01899
138.50 1.04292
139.00 1.06670
139.50 1.09047
140.00 1.11424
140.50 1.13892
141.00 1.16353
141.50 1.18801
142.00 1.21249
142.50 1.23698
143.00 1.26188
143.50 1.28615
144.00 1.31014
144.50 1.33414
145.00 1.35814
145.50 1.38125
146.00 1.40355
146.50 1.42584
147.00 1.44634
147.50 1.46547
148.00 1.48460
148.50 1.50373
149.00 1.52534
149.50 1.54584
150.00 1.56430
150.50 1.58278
151.00 1.60129
151.50 1.61945
152.00 1.63757
152.50 1.65443
153.00 1.67031
153.50 1.68621
154.00 1.70241
154.50 1.71951
155.00 1.73413
155.50 1.74866
156.00 1.76322
156.50 1.77734
157.00 1.78945
157.50 1.80159
158.00 1.81376
158.50 1.82472
159.00 1.83471
159.50 1.84475
160.00 1.85281
160.50 1.85960
161.00 1.86643
161.50 1.87502
162.00 1.88387
162.50 1.89279
163.00 1.89907
163.50 1.90455
164.00 1.91009
164.50 1.91572
165.00 1.92267
165.50 1.93016
166.00 1.93509
166.50 1.93913
167.00 1.94208
167.50 1.94494
168.00 1.94789
168.50 1.95094
169.00 1.95420
169.50 1.95775
170.00 1.96049
170.50 1.96064
171.00 1.96089
171.50 1.96126
172.00 1.96193
172.50 1.96288
173.00 1.96379
173.50 1.96326
174.00 1.96286
174.50 1.96257
175.00 1.96203
175.50 1.96161
176.00 1.96131
176.50 1.96113
177.00 1.96108
177.50 1.96174
178.00 1.96159
178.50 1.96171
179.00 1.96196
179.50 1.96235
180.00 1.96286
180.00 1.96286
180.50 1.96235
181.00 1.96196
181.50 1.96171
182.00 1.96159
182.50 1.96174
183.00 1.96108
183.50 1.96113
184.00 1.96131
184.50 1.96161
185.00 1.96203
185.50 1.96257
186.00 1.96286
186.50 1.96326
187.00 1.96379
187.50 1.96288
188.00 1.96193
188.50 1.96126
189.00 1.96089
189.50 1.96064
190.00 1.96049
190.50 1.95775
191.00 1.95420
191.50 1.95094
192.00 1.94789
192.50 1.94494
193.00 1.94208
193.50 1.93913
194.00 1.93509
194.50 1.93016
195.00 1.92267
195.50 1.91572
196.00 1.91009
196.50 1.90455
197.00 1.89907
197.50 1.89279
198.00 1.88387
198.50 1.87502
199.00 1.86643
199.50 1.85960
200.00 1.85281
200.50 1.84475
201.00 1.83471
201.50 1.82472
202.00 1.81376
202.50 1.80159
203.00 1.78945
203.50 1.77734
204.00 1.76322
204.50 1.74866
205.00 1.73413
205.50 1.71951
206.00 1.70241
206.50 1.68621
207.00 1.67031
207.50 1.65443
208.00 1.63757
208.50 1.61945
209.00 1.60129
209.50 1.58278
210.00 1.56430
210.50 1.54584
211.00 1.52534
211.50 1.50373
212.00 1.48460
212.50 1.46547
213.00 1.44634
213.50 1.42584
214.00 1.40355
214.50 1.38125
215.00 1.35814
215.50 1.33414
216.00 1.31014
216.50 1.28615
217.00 1.26188
217.50 1.23698
218.00 1.21249
218.50 1.18801
219.00 1.16353
219.50 1.13892
220.00 1.11424
220.50 1.09047
221.00 1.06670
221.50 1.04292
222.00 1.01899
222.50 0.99597
223.00 0.97357
223.50 0.95130
224.00 0.92940
224.50 0.90750
225.00 0.88538
225.50 0.86427
226.00 0.84363
226.50 0.82296
227.00 0.80310
227.50 0.78390
228.00 0.76370
228.50 0.74273
229.00 0.72387
229.50 0.70530
230.00 0.68640
230.50 0.66638
231.00 0.64848
231.50 0.63052
232.00 0.61252
232.50 0.59436
233.00 0.57342
233.50 0.55415
234.00 0.53560
234.50 0.51698
235.00 0.49830
235.50 0.47935
236.00 0.45860
236.50 0.43982
237.00 0.42097
237.50 0.40204
238.00 0.38308
238.50 0.36482
239.00 0.34650
239.50 0.32629
240.00 0.30602
240.50 0.28569
241.00 0.26530
241.50 0.24531
242.00 0.23043
242.50 0.21570
243.00 0.20093
243.50 0.18611
244.00 0.17124
244.50 0.15563
245.00 0.14539
245.50 0.13534
246.00 0.12528
246.50 0.11516
247.00 0.10494
247.50 0.09471
248.00 0.08657
248.50 0.08093
249.00 0.07528
249.50 0.06963
250.00 0.06388
250.50 0.05812
251.00 0.05236
251.50 0.04694
252.00 0.04358
252.50 0.04045
253.00 0.03732
253.50 0.03420
254.00 0.03108
254.50 0.02796
255.00 0.02572
255.50 0.02400
256.00 0.02227
256.50 0.02055
257.00 0.01882
257.50 0.01704
258.00 0.01525
258.50 0.01409
259.00 0.01317
259.50 0.01225
260.00 0.01133
260.50 0.01041
261.00 0.00948
261.50 0.00859
262.00 0.00794
262.50 0.00741
263.00 0.00691
263.50 0.00641
264.00 0.00591
264.50 0.00547
265.00 0.00520
265.50 0.00494
266.00 0.00468
266.50 0.00441
267.00 0.00413
267.50 0.00403
268.00 0.00393
268.50 0.00381
269.00 0.00370
269.50 0.00359
270.00 0.00348
270.00 0.00348
270.50 0.00359
271.00 0.00370
271.50 0.00381
272.00 0.00393
272.50 0.00403
273.00 0.00413
273.50 0.00441
274.00 0.00468
274.50 0.00494
275.00 0.00520
275.50 0.00547
276.00 0.00591
276.50 0.00641
277.00 0.00691
277.50 0.00741
278.00 0.00794
278.50 0.00859
279.00 0.00948
279.50 0.01041
280.00 0.01133
280.50 0.01225
281.00 0.01317
281.50 0.01409
282.00 0.01525
282.50 0.01704
283.00 0.01882
283.50 0.02055
284.00 0.02227
284.50 0.02400
285.00 0.02572
285.50 0.02796
286.00 0.03108
286.50 0.03420
287.00 0.03732
287.50 0.04045
288.00 0.04358
288.50 0.04694
289.00 0.05236
289.50 0.05812
290.00 0.06388
290.50 0.06963
291.00 0.07528
291.50 0.08093
292.00 0.08657
292.50 0.09471
293.00 0.10494
293.50 0.11516
294.00 0.12528
294.50 0.13534
295.00 0.14539
295.50 0.15563
296.00 0.17124
296.50 0.18611
297.00 0.20093
297.50 0.21570
298.00 0.23043
298.50 0.24531
299.00 0.26530
299.50 0.28569
300.00 0.30602
300.50 0.32629
301.00 0.34650
301.50 0.36482
302.00 0.38308
302.50 0.40204
303.00 0.42097
303.50 0.43982
304.00 0.45860
304.50 0.47935
305.00 0.49830
305.50 0.51698
306.00 0.53560
306.50 0.55415
307.00 0.57342
307.50 0.59436
308.00 0.61252
308.50 0.63052
309.00 0.64848
309.50 0.66638
310.00 0.68640
310.50 0.70530
311.00 0.72387
311.50 0.74273
312.00 0.76370
312.50 0.78390
313.00 0.80310
313.50 0.82296
314.00 0.84363
314.50 0.86427
315.00 0.88538
315.50 0.90750
316.00 0.92940
316.50 0.95130
317.00 0.97357
317.50 0.99597
318.00 1.01899
318.50 1.04292
319.00 1.06670
319.50 1.09047
320.00 1.11424
320.50 1.13892
321.00 1.16353
321.50 1.18801
322.00 1.21249
322.50 1.23698
323.00 1.26188
323.50 1.28615
324.00 1.31014
324.50 1.33414
325.00 1.35814
325.50 1.38125
326.00 1.40355
326.50 1.42584
327.00 1.44634
327.50 1.46547
328.00 1.48460
328.50 1.50373
329.00 1.52534
329.50 1.54584
330.00 1.56430
330.50 1.58278
331.00 1.60129
331.50 1.61945
332.00 1.63757
332.50 1.65443
333.00 1.67031
333.50 1.68621
334.00 1.70241
334.50 1.71951
335.00 1.73413
335.50 1.74866
336.00 1.76322
336.50 1.77734
337.00 1.78945
337.50 1.80159
338.00 1.81376
338.50 1.82472
339.00 1.83471
339.50 1.84475
340.00 1.85281
340.50 1.85960
341.00 1.86643
341.50 1.87502
342.00 1.88387
342.50 1.89279
343.00 1.89907
343.50 1.90455
344.00 1.91009
344.50 1.91572
345.00 1.92267
345.50 1.93016
346.00 1.93509
346.50 1.93913
347.00 1.94208
347.50 1.94494
348.00 1.94789
348.50 1.95094
349.00 1.95420
349.50 1.95775
350.00 1.96049
350.50 1.96064
351.00 1.96089
351.50 1.96126
352.00 1.96193
352.50 1.96288
353.00 1.96379
353.50 1.96326
354.00 1.96286
354.50 1.96257
355.00 1.96203
355.50 1.96161
356.00 1.96131
356.50 1.96113
357.00 1.96108
357.50 1.96174
358.00 1.96159
358.50 1.96171
359.00 1.96196
359.50 1.96235
360.00 1.96286
