phi[deg] B[T]
0.00 1.17144
0.50 1.17033
1.00 1.16929
1.50 1.16828
2.00 1.16663
2.50 1.16508
3.00 1.16362
3.50 1.16278
4.00 1.16209
4.50 1.16113
5.00 1.16027
5.50 1.16007
6.00 1.16047
6.50 1.16120
7.00 1.16275
7.50 1.16440
8.00 1.16588
8.50 1.16742
9.00 1.16916
9.50 1.17252
10.00 1.17547
10.50 1.17805
11.00 1.17901
11.50 1.17998
12.00 1.18049
12.50 1.17863
13.00 1.17683
13.50 1.17531
14.00 1.17390
14.50 1.17163
15.00 1.16858
15.50 1.16577
16.00 1.16389
16.50 1.16211
17.00 1.16084
17.50 1.15984
18.00 1.15867
18.50 1.15717
19.00 1.15576
19.50 1.15646
20.00 1.15758
20.50 1.15618
21.00 1.15340
21.50 1.15067
22.00 1.14826
22.50 1.14989
23.00 1.14300
23.50 1.13617
24.00 1.12938
24.50 1.12259
25.00 1.11039
25.50 1.09648
26.00 1.08429
26.50 1.07236
27.00 1.05980
27.50 1.04551
28.00 1.03148
28.50 1.01899
29.00 1.00657
29.50 0.99421
30.00 0.98205
30.50 0.97120
31.00 0.96021
31.50 0.94856
32.00 0.93697
32.50 0.92602
33.00 0.91650
33.50 0.90643
34.00 0.89410
34.50 0.88181
35.00 0.87010
35.50 0.85899
36.00 0.84630
36.50 0.83201
37.00 0.81774
37.50 0.80362
38.00 0.78969
38.50 0.77477
39.00 0.75947
39.50 0.74415
40.00 0.72884
40.50 0.71343
41.00 0.69781
41.50 0.68171
42.00 0.66536
42.50 0.64913
43.00 0.63272
43.50 0.61593
44.00 0.59936
44.50 0.58262
45.00 0.56565
45.50 0.54875
46.00 0.53295
46.50 0.51764
47.00 0.50282
47.50 0.48996
48.00 0.47874
48.50 0.46971
49.00 0.46114
49.50 0.45423
50.00 0.45102
50.50 0.45004
51.00 0.44373
51.50 0.43741
52.00 0.43269
52.50 0.43102
53.00 0.42637
53.50 0.41758
54.00 0.40871
54.50 0.40027
55.00 0.39280
55.50 0.38206
56.00 0.36642
56.50 0.35062
57.00 0.33467
57.50 0.31857
58.00 0.29989
58.50 0.27852
59.00 0.25639
59.50 0.22855
60.00 0.20059
60.50 0.17902
61.00 0.15920
61.50 0.13889
62.00 0.11504
62.50 0.09547
63.00 0.07994
63.50 0.06879
64.00 0.05781
64.50 0.04749
65.00 0.04039
65.50 0.03328
66.00 0.02748
66.50 0.02262
67.00 0.01953
67.50 0.01642
68.00 0.01332
68.50 0.01120
69.00 0.00962
69.50 0.00803
70.00 0.00644
70.50 0.00561
71.00 0.00478
71.50 0.00392
72.00 0.00326
72.50 0.00282
73.00 0.00240
73.50 0.00196
74.00 0.00175
74.50 0.00153
75.00 0.00132
75.50 0.00113
76.00 0.00102
76.50 0.00094
77.00 0.00086
77.50 0.00078
78.00 0.00072
78.50 0.00067
79.00 0.00062
79.50 0.00059
80.00 0.00056
80.50 0.00053
81.00 0.00050
81.50 0.00047
82.00 0.00044
82.50 0.00042
83.00 0.00039
83.50 0.00036
84.00 0.00034
84.50 0.00031
85.00 0.00029
85.50 0.00026
86.00 0.00024
86.50 0.00021
87.00 0.00019
87.50 0.00017
88.00 0.00015
88.50 0.00012
89.00 0.00011
89.50 0.00010
90.00 0.00009
90.00 0.00009
90.50 0.00010
91.00 0.00011
91.50 0.00012
92.00 0.00015
92.50 0.00017
93.00 0.00019
93.50 0.00021
94.00 0.00024
94.50 0.00026
95.00 0.00029
95.50 0.00031
96.00 0.00034
96.50 0.00036
97.00 0.00039
97.50 0.00042
98.00 0.00044
98.50 0.00047
99.00 0.00050
99.50 0.00053
100.00 0.00056
100.50 0.00059
101.00 0.00062
101.50 0.00067
102.00 0.00072
102.50 0.00078
103.00 0.00086
103.50 0.00094
104.00 0.00102
104.50 0.00113
105.00 0.00132
105.50 0.00153
106.00 0.00175
106.50 0.00196
107.00 0.00240
107.50 0.00282
108.00 0.00326
108.50 0.00392
109.00 0.00478
109.50 0.00561
110.00 0.00644
110.50 0.00803
111.00 0.00962
111.50 0.01120
112.00 0.01332
112.50 0.01642
113.00 0.01953
113.50 0.02262
114.00 0.02748
114.50 0.03328
115.00 0.04039
115.50 0.04749
116.00 0.05781
116.50 0.06879
117.00 0.07994
117.50 0.09547
118.00 0.11504
118.50 0.13889
119.00 0.15920
119.50 0.17902
120.00 0.20059
120.50 0.22855
121.00 0.25639
121.50 0.27852
122.00 0.29989
122.50 0.31857
123.00 0.33467
123.50 0.35062
124.00 0.36642
124.50 0.38206
125.00 0.39280
125.50 0.40027
126.00 0.40871
126.50 0.41758
127.00 0.42637
127.50 0.43102
128.00 0.43269
128.50 0.43741
129.00 0.44373
129.50 0.45004
130.00 0.45102
130.50 0.45423
131.00 0.46114
131.50 0.46971
132.00 0.47874
132.50 0.48996
133.00 0.50282
133.50 0.51764
134.00 0.53295
134.50 0.54875
135.00 0.56565
135.50 0.58262
136.00 0.59936
136.50 0.61593
137.00 0.63272
137.50 0.64913
138.00 0.66536
138.50 0.68171
139.00 0.69781
139.50 0.71343
140.00 0.72884
140.50 0.74415
141.00 0.75947
141.50 0.77477
142.00 0.78969
142.50 0.80362
143.00 0.81774
143.50 0.83201
144.00 0.84630
144.50 0.85899
145.00 0.87010
145.50 0.88181
146.00 0.89410
146.50 0.90643
147.00 0.91650
147.50 0.92602
148.00 0.93697
148.50 0.94856
149.00 0.96021
149.50 0.97120
150.00 0.98205
150.50 0.99421
151.00 1.00657
151.50 1.01899
152.00 1.03148
152.50 1.04551
153.00 1.05980
153.50 1.07236
154.00 1.08429
154.50 1.09648
155.00 1.11039
155.50 1.12259
156.00 1.12938
156.50 1.13617
157.00 1.14300
157.50 1.14989
158.00 1.14826
158.50 1.15067
159.00 1.15340
159.50 1.15618
160.00 1.15758
160.50 1.15646
161.00 1.15576
161.50 1.15717
162.00 1.15867
162.50 1.15984
163.00 1.16084
163.50 1.16211
164.00 1.16389
164.50 1.16577
165.00 1.16858
165.50 1.17163
166.00 1.17390
166.50 1.17531
167.00 1.17683
167.50 1.17863
168.00 1.18049
168.50 1.17998
169.00 1.17901
169.50 1.17805
170.00 1.17547
170.50 1.17252
171.00 1.16916
171.50 1.16742
172.00 1.16588
172.50 1.16440
173.00 1.16275
173.50 1.16120
174.00 1.16047
174.50 1.16007
175.00 1.16027
175.50 1.16113
176.00 1.16209
176.50 1.16278
177.00 1.16362
177.50 1.16508
178.00 1.16663
178.50 1.16828
179.00 1.16929
179.50 1.17033
180.00 1.17144
180.00 1.17144
180.50 1.17033
181.00 1.16929
181.50 1.16828
182.00 1.16663
182.50 1.16508
183.00 1.16362
183.50 1.16278
184.00 1.16209
184.50 1.16113
185.00 1.16027
185.50 1.16007
186.00 1.16047
186.50 1.16120
187.00 1.16275
187.50 1.16440
188.00 1.16588
188.50 1.16742
189.00 1.16916
189.50 1.17252
190.00 1.17547
190.50 1.17805
191.00 1.17901
191.50 1.17998
192.00 1.18049
192.50 1.17863
193.00 1.17683
193.50 1.17531
194.00 1.17390
194.50 1.17163
195.00 1.16858
195.50 1.16577
196.00 1.16389
196.50 1.16211
197.00 1.16084
197.50 1.15984
198.00 1.15867
198.50 1.15717
199.00 1.15576
199.50 1.15646
200.00 1.15758
200.50 1.15618
201.00 1.15340
201.50 1.15067
202.00 1.14826
202.50 1.14989
203.00 1.14300
203.50 1.13617
204.00 1.12938
204.50 1.12259
205.00 1.11039
205.50 1.09648
206.00 1.08429
206.50 1.07236
207.00 1.05980
207.50 1.04551
208.00 1.03148
208.50 1.01899
209.00 1.00657
209.50 0.99421
210.00 0.98205
210.50 0.97120
211.00 0.96021
211.50 0.94856
212.00 0.93697
212.50 0.92602
213.00 0.91650
213.50 0.90643
214.00 0.89410
214.50 0.88181
215.00 0.87010
215.50 0.85899
216.00 0.84630
216.50 0.83201
217.00 0.81774
217.50 0.80362
218.00 0.78969
218.50 0.77477
219.00 0.75947
219.50 0.74415
220.00 0.72884
220.50 0.71343
221.00 0.69781
221.50 0.68171
222.00 0.66536
222.50 0.64913
223.00 0.63272
223.50 0.61593
224.00 0.59936
224.50 0.58262
225.00 0.56565
225.50 0.54875
226.00 0.53295
226.50 0.51764
227.00 0.50282
227.50 0.48996
228.00 0.47874
228.50 0.46971
229.00 0.46114
229.50 0.45423
230.00 0.45102
230.50 0.45004
231.00 0.44373
231.50 0.43741
232.00 0.43269
232.50 0.43102
233.00 0.42637
233.50 0.41758
234.00 0.40871
234.50 0.40027
235.00 0.39280
235.50 0.38206
236.00 0.36642
236.50 0.35062
237.00 0.33467
237.50 0.31857
238.00 0.29989
238.50 0.27852
239.00 0.25639
239.50 0.22855
240.00 0.20059
240.50 0.17902
241.00 0.15920
241.50 0.13889
242.00 0.11504
242.50 0.09547
243.00 0.07994
243.50 0.06879
244.00 0.05781
244.50 0.04749
245.00 0.04039
245.50 0.03328
246.00 0.02748
246.50 0.02262
247.00 0.01953
247.50 0.01642
248.00 0.01332
248.50 0.01120
249.00 0.00962
249.50 0.00803
250.00 0.00644
250.50 0.00561
251.00 0.00478
251.50 0.00392
252.00 0.00326
252.50 0.00282
253.00 0.00240
253.50 0.00196
254.00 0.00175
254.50 0.00153
255.00 0.00132
255.50 0.00113
256.00 0.00102
256.50 0.00094
257.00 0.00086
257.50 0.00078
258.00 0.00072
258.50 0.00067
259.00 0.00062
259.50 0.00059
260.00 0.00056
260.50 0.00053
261.00 0.00050
261.50 0.00047
262.00 0.00044
262.50 0.00042
263.00 0.00039
263.50 0.00036
264.00 0.00034
264.50 0.00031
265.00 0.00029
265.50 0.00026
266.00 0.00024
266.50 0.00021
267.00 0.00019
267.50 0.00017
268.00 0.00015
268.50 0.00012
269.00 0.00011
269.50 0.00010
270.00 0.00009
270.00 0.00009
270.50 0.00010
271.00 0.00011
271.50 0.00012
272.00 0.00015
272.50 0.00017
273.00 0.00019
273.50 0.00021
274.00 0.00024
274.50 0.00026
275.00 0.00029
275.50 0.00031
276.00 0.00034
276.50 0.00036
277.00 0.00039
277.50 0.00042
278.00 0.00044
278.50 0.00047
279.00 0.00050
279.50 0.00053
280.00 0.00056
280.50 0.00059
281.00 0.00062
281.50 0.00067
282.00 0.00072
282.50 0.00078
283.00 0.00086
283.50 0.00094
284.00 0.00102
284.50 0.00113
285.00 0.00132
285.50 0.00153
286.00 0.00175
286.50 0.00196
287.00 0.00240
287.50 0.00282
288.00 0.00326
288.50 0.00392
289.00 0.00478
289.50 0.00561
290.00 0.00644
290.50 0.00803
291.00 0.00962
291.50 0.01120
292.00 0.01332
292.50 0.01642
293.00 0.01953
293.50 0.02262
294.00 0.02748
294.50 0.03328
295.00 0.04039
295.50 0.04749
296.00 0.05781
296.50 0.06879
297.00 0.07994
297.50 0.09547
298.00 0.11504
298.50 0.13889
299.00 0.15920
299.50 0.17902
300.00 0.20059
300.50 0.22855
301.00 0.25639
301.50 0.27852
302.00 0.29989
302.50 0.31857
303.00 0.33467
303.50 0.35062
304.00 0.36642
304.50 0.38206
305.00 0.39280
305.50 0.40027
306.00 0.40871
306.50 0.41758
307.00 0.42637
307.50 0.43102
308.00 0.43269
308.50 0.43741
309.00 0.44373
309.50 0.45004
310.00 0.45102
310.50 0.45423
311.00 0.46114
311.50 0.46971
312.00 0.47874
312.50 0.48996
313.00 0.50282
313.50 0.51764
314.00 0.53295
314.50 0.54875
315.00 0.56565
315.50 0.58262
316.00 0.59936
316.50 0.61593
317.00 0.63272
317.50 0.64913
318.00 0.66536
318.50 0.68171
319.00 0.69781
319.50 0.71343
320.00 0.72884
320.50 0.74415
321.00 0.75947
321.50 0.77477
322.00 0.78969
322.50 0.80362
323.00 0.81774
323.50 0.83201
324.00 0.84630
324.50 0.85899
325.00 0.87010
325.50 0.88181
326.00 0.89410
326.50 0.90643
327.00 0.91650
327.50 0.92602
328.00 0.93697
328.50 0.94856
329.00 0.96021
329.50 0.97120
330.00 0.98205
330.50 0.99421
331.00 1.00657
331.50 1.01899
332.00 1.03148
332.50 1.04551
333.00 1.05980
333.50 1.07236
334.00 1.08429
334.50 1.09648
335.00 1.11039
335.50 1.12259
336.00 1.12938
336.50 1.13617
337.00 1.14300
337.50 1.14989
338.00 1.14826
338.50 1.15067
339.00 1.15340
339.50 1.15618
340.00 1.15758
340.50 1.15646
341.00 1.15576
341.50 1.15717
342.00 1.15867
342.50 1.15984
343.00 1.16084
343.50 1.16211
344.00 1.16389
344.50 1.16577
345.00 1.16858
345.50 1.17163
346.00 1.17390
346.50 1.17531
347.00 1.17683
347.50 1.17863
348.00 1.18049
348.50 1.17998
349.00 1.17901
349.50 1.17805
350.00 1.17547
350.50 1.17252
351.00 1.16916
351.50 1.16742
352.00 1.16588
352.50 1.16440
353.00 1.16275
353.50 1.16120
354.00 1.16047
354.50 1.16007
355.00 1.16027
355.50 1.16113
356.00 1.16209
356.50 1.16278
357.00 1.16362
357.50 1.16508
358.00 1.16663
358.50 1.16828
359.00 1.16929
359.50 1.17033
360.00 1.17144
