phi[deg] B[T]
0.00 1.17035
0.50 1.16913
1.00 1.16799
1.50 1.16688
2.00 1.16503
2.50 1.16327
3.00 1.16160
3.50 1.16052
4.00 1.15958
4.50 1.15829
5.00 1.15709
5.50 1.15658
6.00 1.15668
6.50 1.15709
7.00 1.15827
7.50 1.15954
8.00 1.16072
8.50 1.16196
9.00 1.16340
9.50 1.16637
10.00 1.16901
10.50 1.17132
11.00 1.17208
11.50 1.17286
12.00 1.17323
12.50 1.17140
13.00 1.16964
13.50 1.16811
14.00 1.16669
14.50 1.16449
15.00 1.16159
15.50 1.15891
16.00 1.15706
16.50 1.15530
17.00 1.15409
17.50 1.15318
18.00 1.15204
18.50 1.15050
19.00 1.14904
19.50 1.14974
20.00 1.15084
20.50 1.14934
21.00 1.14638
21.50 1.14347
22.00 1.14088
22.50 1.14243
23.00 1.13524
23.50 1.12808
24.00 1.12094
24.50 1.11381
25.00 1.10111
25.50 1.08664
26.00 1.07387
26.50 1.06136
27.00 1.04815
27.50 1.03307
28.00 1.01826
28.50 1.00506
29.00 0.99191
29.50 0.97883
30.00 0.96574
30.50 0.95388
31.00 0.94207
31.50 0.92985
32.00 0.91769
32.50 0.90610
33.00 0.89578
33.50 0.88511
34.00 0.87296
34.50 0.86085
35.00 0.84949
35.50 0.83889
36.00 0.82714
36.50 0.81420
37.00 0.80130
37.50 0.78881
38.00 0.77699
38.50 0.76438
39.00 0.75068
39.50 0.73687
40.00 0.72307
40.50 0.70920
41.00 0.69515
41.50 0.68027
42.00 0.66494
42.50 0.64969
43.00 0.63407
43.50 0.61789
44.00 0.60184
44.50 0.58524
45.00 0.56846
45.50 0.55129
46.00 0.53509
46.50 0.51906
47.00 0.50332
47.50 0.48940
48.00 0.47675
48.50 0.46614
49.00 0.45630
49.50 0.44786
50.00 0.44279
50.50 0.44045
51.00 0.43322
51.50 0.42600
52.00 0.42033
52.50 0.41782
53.00 0.41275
53.50 0.40361
54.00 0.39439
54.50 0.38571
55.00 0.37816
55.50 0.36748
56.00 0.35212
56.50 0.33660
57.00 0.32108
57.50 0.30547
58.00 0.28739
58.50 0.26678
59.00 0.24545
59.50 0.21878
60.00 0.19199
60.50 0.17132
61.00 0.15233
61.50 0.13286
62.00 0.11005
62.50 0.09133
63.00 0.07649
63.50 0.06582
64.00 0.05531
64.50 0.04543
65.00 0.03865
65.50 0.03185
66.00 0.02629
66.50 0.02165
67.00 0.01869
67.50 0.01572
68.00 0.01275
68.50 0.01072
69.00 0.00922
69.50 0.00769
70.00 0.00617
70.50 0.00538
71.00 0.00458
71.50 0.00376
72.00 0.00313
72.50 0.00271
73.00 0.00230
73.50 0.00189
74.00 0.00168
74.50 0.00148
75.00 0.00128
75.50 0.00109
76.00 0.00099
76.50 0.00091
77.00 0.00084
77.50 0.00076
78.00 0.00071
78.50 0.00065
79.00 0.00061
79.50 0.00058
80.00 0.00055
80.50 0.00052
81.00 0.00049
81.50 0.00046
82.00 0.00044
82.50 0.00041
83.00 0.00038
83.50 0.00036
84.00 0.00033
84.50 0.00031
85.00 0.00028
85.50 0.00026
86.00 0.00024
86.50 0.00021
87.00 0.00019
87.50 0.00016
88.00 0.00014
88.50 0.00012
89.00 0.00011
89.50 0.00010
90.00 0.00009
90.00 0.00009
90.50 0.00010
91.00 0.00011
91.50 0.00012
92.00 0.00014
92.50 0.00016
93.00 0.00019
93.50 0.00021
94.00 0.00024
94.50 0.00026
95.00 0.00028
95.50 0.00031
96.00 0.00033
96.50 0.00036
97.00 0.00038
97.50 0.00041
98.00 0.00044
98.50 0.00046
99.00 0.00049
99.50 0.00052
100.00 0.00055
100.50 0.00058
101.00 0.00061
101.50 0.00065
102.00 0.00071
102.50 0.00076
103.00 0.00084
103.50 0.00091
104.00 0.00099
104.50 0.00109
105.00 0.00128
105.50 0.00148
106.00 0.00168
106.50 0.00189
107.00 0.00230
107.50 0.00271
108.00 0.00313
108.50 0.00376
109.00 0.00458
109.50 0.00538
110.00 0.00617
110.50 0.00769
111.00 0.00922
111.50 0.01072
112.00 0.01275
112.50 0.01572
113.00 0.01869
113.50 0.02165
114.00 0.02629
114.50 0.03185
115.00 0.03865
115.50 0.04543
116.00 0.05531
116.50 0.06582
117.00 0.07649
117.50 0.09133
118.00 0.11005
118.50 0.13286
119.00 0.15233
119.50 0.17132
120.00 0.19199
120.50 0.21878
121.00 0.24545
121.50 0.26678
122.00 0.28739
122.50 0.30547
123.00 0.32108
123.50 0.33660
124.00 0.35212
124.50 0.36748
125.00 0.37816
125.50 0.38571
126.00 0.39439
126.50 0.40361
127.00 0.41275
127.50 0.41782
128.00 0.42033
128.50 0.42600
129.00 0.43322
129.50 0.44045
130.00 0.44279
130.50 0.44786
131.00 0.45630
131.50 0.46614
132.00 0.47675
132.50 0.48940
133.00 0.50332
133.50 0.51906
134.00 0.53509
134.50 0.55129
135.00 0.56846
135.50 0.58524
136.00 0.60184
136.50 0.61789
137.00 0.63407
137.50 0.64969
138.00 0.66494
138.50 0.68027
139.00 0.69515
139.50 0.70920
140.00 0.72307
140.50 0.73687
141.00 0.75068
141.50 0.76438
142.00 0.77699
142.50 0.78881
143.00 0.80130
143.50 0.81420
144.00 0.82714
144.50 0.83889
145.00 0.84949
145.50 0.86085
146.00 0.87296
146.50 0.88511
147.00 0.89578
147.50 0.90610
148.00 0.91769
148.50 0.92985
149.00 0.94207
149.50 0.95388
150.00 0.96574
150.50 0.97883
151.00 0.99191
151.50 1.00506
152.00 1.01826
152.50 1.03307
153.00 1.04815
153.50 1.06136
154.00 1.07387
154.50 1.08664
155.00 1.10111
155.50 1.11381
156.00 1.12094
156.50 1.12808
157.00 1.13524
157.50 1.14243
158.00 1.14088
158.50 1.14347
159.00 1.14638
159.50 1.14934
160.00 1.15084
160.50 1.14974
161.00 1.14904
161.50 1.15050
162.00 1.15204
162.50 1.15318
163.00 1.15409
163.50 1.15530
164.00 1.15706
164.50 1.15891
165.00 1.16159
165.50 1.16449
166.00 1.16669
166.50 1.16811
167.00 1.16964
167.50 1.17140
168.00 1.17323
168.50 1.17286
169.00 1.17208
169.50 1.17132
170.00 1.16901
170.50 1.16637
171.00 1.16340
171.50 1.16196
172.00 1.16072
172.50 1.15954
173.00 1.15827
173.50 1.15709
174.00 1.15668
174.50 1.15658
175.00 1.15709
175.50 1.15829
176.00 1.15958
176.50 1.16052
177.00 1.16160
177.50 1.16327
178.00 1.16503
178.50 1.16688
179.00 1.16799
179.50 1.16913
180.00 1.17035
180.00 1.17035
180.50 1.16913
181.00 1.16799
181.50 1.16688
182.00 1.16503
182.50 1.16327
183.00 1.16160
183.50 1.16052
184.00 1.15958
184.50 1.15829
185.00 1.15709
185.50 1.15658
186.00 1.15668
186.50 1.15709
187.00 1.15827
187.50 1.15954
188.00 1.16072
188.50 1.16196
189.00 1.16340
189.50 1.16637
190.00 1.16901
190.50 1.17132
191.00 1.17208
191.50 1.17286
192.00 1.17323
192.50 1.17140
193.00 1.16964
193.50 1.16811
194.00 1.16669
194.50 1.16449
195.00 1.16159
195.50 1.15891
196.00 1.15706
196.50 1.15530
197.00 1.15409
197.50 1.15318
198.00 1.15204
198.50 1.15050
199.00 1.14904
199.50 1.14974
200.00 1.15084
200.50 1.14934
201.00 1.14638
201.50 1.14347
202.00 1.14088
202.50 1.14243
203.00 1.13524
203.50 1.12808
204.00 1.12094
204.50 1.11381
205.00 1.10111
205.50 1.08664
206.00 1.07387
206.50 1.06136
207.00 1.04815
207.50 1.03307
208.00 1.01826
208.50 1.00506
209.00 0.99191
209.50 0.97883
210.00 0.96574
210.50 0.95388
211.00 0.94207
211.50 0.92985
212.00 0.91769
212.50 0.90610
213.00 0.89578
213.50 0.88511
214.00 0.87296
214.50 0.86085
215.00 0.84949
215.50 0.83889
216.00 0.82714
216.50 0.81420
217.00 0.80130
217.50 0.78881
218.00 0.77699
218.50 0.76438
219.00 0.75068
219.50 0.73687
220.00 0.72307
220.50 0.70920
221.00 0.69515
221.50 0.68027
222.00 0.66494
222.50 0.64969
223.00 0.63407
223.50 0.61789
224.00 0.60184
224.50 0.58524
225.00 0.56846
225.50 0.55129
226.00 0.53509
226.50 0.51906
227.00 0.50332
227.50 0.48940
228.00 0.47675
228.50 0.46614
229.00 0.45630
229.50 0.44786
230.00 0.44279
230.50 0.44045
231.00 0.43322
231.50 0.42600
232.00 0.42033
232.50 0.41782
233.00 0.41275
233.50 0.40361
234.00 0.39439
234.50 0.38571
235.00 0.37816
235.50 0.36748
236.00 0.35212
236.50 0.33660
237.00 0.32108
237.50 0.30547
238.00 0.28739
238.50 0.26678
239.00 0.24545
239.50 0.21878
240.00 0.19199
240.50 0.17132
241.00 0.15233
241.50 0.13286
242.00 0.11005
242.50 0.09133
243.00 0.07649
243.50 0.06582
244.00 0.05531
244.50 0.04543
245.00 0.03865
245.50 0.03185
246.00 0.02629
246.50 0.02165
247.00 0.01869
247.50 0.01572
248.00 0.01275
248.50 0.01072
249.00 0.00922
249.50 0.00769
250.00 0.00617
250.50 0.00538
251.00 0.00458
251.50 0.00376
252.00 0.00313
252.50 0.00271
253.00 0.00230
253.50 0.00189
254.00 0.00168
254.50 0.00148
255.00 0.00128
255.50 0.00109
256.00 0.00099
256.50 0.00091
257.00 0.00084
257.50 0.00076
258.00 0.00071
258.50 0.00065
259.00 0.00061
259.50 0.00058
260.00 0.00055
260.50 0.00052
261.00 0.00049
261.50 0.00046
262.00 0.00044
262.50 0.00041
263.00 0.00038
263.50 0.00036
264.00 0.00033
264.50 0.00031
265.00 0.00028
265.50 0.00026
266.00 0.00024
266.50 0.00021
267.00 0.00019
267.50 0.00016
268.00 0.00014
268.50 0.00012
269.00 0.00011
269.50 0.00010
270.00 0.00009
270.00 0.00009
270.50 0.00010
271.00 0.00011
271.50 0.00012
272.00 0.00014
272.50 0.00016
273.00 0.00019
273.50 0.00021
274.00 0.00024
274.50 0.00026
275.00 0.00028
275.50 0.00031
276.00 0.00033
276.50 0.00036
277.00 0.00038
277.50 0.00041
278.00 0.00044
278.50 0.00046
279.00 0.00049
279.50 0.00052
280.00 0.00055
280.50 0.00058
281.00 0.00061
281.50 0.00065
282.00 0.00071
282.50 0.00076
283.00 0.00084
283.50 0.00091
284.00 0.00099
284.50 0.00109
285.00 0.00128
285.50 0.00148
286.00 0.00168
286.50 0.00189
287.00 0.00230
287.50 0.00271
288.00 0.00313
288.50 0.00376
289.00 0.00458
289.50 0.00538
290.00 0.00617
290.50 0.00769
291.00 0.00922
291.50 0.01072
292.00 0.01275
292.50 0.01572
293.00 0.01869
293.50 0.02165
294.00 0.02629
294.50 0.03185
295.00 0.03865
295.50 0.04543
296.00 0.05531
296.50 0.06582
297.00 0.07649
297.50 0.09133
298.00 0.11005
298.50 0.13286
299.00 0.15233
299.50 0.17132
300.00 0.19199
300.50 0.21878
301.00 0.24545
301.50 0.26678
302.00 0.28739
302.50 0.30547
303.00 0.32108
303.50 0.33660
304.00 0.35212
304.50 0.36748
305.00 0.37816
305.50 0.38571
306.00 0.39439
306.50 0.40361
307.00 0.41275
307.50 0.41782
308.00 0.42033
308.50 0.42600
309.00 0.43322
309.50 0.44045
310.00 0.44279
310.50 0.44786
311.00 0.45630
311.50 0.46614
312.00 0.47675
312.50 0.48940
313.00 0.50332
313.50 0.51906
314.00 0.53509
314.50 0.55129
315.00 0.56846
315.50 0.58524
316.00 0.60184
316.50 0.61789
317.00 0.63407
317.50 0.64969
318.00 0.66494
318.50 0.68027
319.00 0.69515
319.50 0.70920
320.00 0.72307
320.50 0.73687
321.00 0.75068
321.50 0.76438
322.00 0.77699
322.50 0.78881
323.00 0.80130
323.50 0.81420
324.00 0.82714
324.50 0.83889
325.00 0.84949
325.50 0.86085
326.00 0.87296
326.50 0.88511
327.00 0.89578
327.50 0.90610
328.00 0.91769
328.50 0.92985
329.00 0.94207
329.50 0.95388
330.00 0.96574
330.50 0.97883
331.00 0.99191
331.50 1.00506
332.00 1.01826
332.50 1.03307
333.00 1.04815
333.50 1.06136
334.00 1.07387
334.50 1.08664
335.00 1.10111
335.50 1.11381
336.00 1.12094
336.50 1.12808
337.00 1.13524
337.50 1.14243
338.00 1.14088
338.50 1.14347
339.00 1.14638
339.50 1.14934
340.00 1.15084
340.50 1.14974
341.00 1.14904
341.50 1.15050
342.00 1.15204
342.50 1.15318
343.00 1.15409
343.50 1.15530
344.00 1.15706
344.50 1.15891
345.00 1.16159
345.50 1.16449
346.00 1.16669
346.50 1.16811
347.00 1.16964
347.50 1.17140
348.00 1.17323
348.50 1.17286
349.00 1.17208
349.50 1.17132
350.00 1.16901
350.50 1.16637
351.00 1.16340
351.50 1.16196
352.00 1.16072
352.50 1.15954
353.00 1.15827
353.50 1.15709
354.00 1.15668
354.50 1.15658
355.00 1.15709
355.50 1.15829
356.00 1.15958
356.50 1.16052
357.00 1.16160
357.50 1.16327
358.00 1.16503
358.50 1.16688
359.00 1.16799
359.50 1.16913
360.00 1.17035
