phi[deg] B[T]
0.00 1.05622
0.50 1.05565
1.00 1.05514
1.50 1.05470
2.00 1.05458
2.50 1.05397
3.00 1.05295
3.50 1.05243
4.00 1.05197
4.50 1.05157
5.00 1.05034
5.50 1.04913
6.00 1.04785
6.50 1.04661
7.00 1.04538
7.50 1.04372
8.00 1.04213
8.50 1.04017
9.00 1.03789
9.50 1.03567
10.00 1.03376
10.50 1.03186
11.00 1.02953
11.50 1.02690
12.00 1.02432
12.50 1.02181
13.00 1.01935
13.50 1.01674
14.00 1.01411
14.50 1.01140
15.00 1.00761
15.50 1.00386
16.00 1.00017
16.50 0.99653
17.00 0.99294
17.50 0.98931
18.00 0.98572
18.50 0.98219
19.00 0.97730
19.50 0.97207
20.00 0.96689
20.50 0.96176
21.00 0.95683
21.50 0.95249
22.00 0.94819
22.50 0.94393
23.00 0.93921
23.50 0.93408
24.00 0.92899
24.50 0.92278
25.00 0.91599
25.50 0.90923
26.00 0.90250
26.50 0.89580
27.00 0.88997
27.50 0.88462
28.00 0.87925
28.50 0.87240
29.00 0.86556
29.50 0.85867
30.00 0.85023
30.50 0.84179
31.00 0.83336
31.50 0.82493
32.00 0.81741
32.50 0.81034
33.00 0.80327
33.50 0.79571
34.00 0.78476
34.50 0.77380
35.00 0.76282
35.50 0.75183
36.00 0.74216
36.50 0.73439
37.00 0.72662
37.50 0.71893
38.00 0.70728
38.50 0.69424
39.00 0.68112
39.50 0.66794
40.00 0.65457
40.50 0.64040
41.00 0.62606
41.50 0.61165
42.00 0.59581
42.50 0.58017
43.00 0.56442
43.50 0.54791
44.00 0.52790
44.50 0.50777
45.00 0.48935
45.50 0.46807
46.00 0.44786
46.50 0.42752
47.00 0.40489
47.50 0.38161
48.00 0.35822
48.50 0.33541
49.00 0.31337
49.50 0.29121
50.00 0.26898
50.50 0.24793
51.00 0.23084
51.50 0.21370
52.00 0.19541
52.50 0.17679
53.00 0.15814
53.50 0.14238
54.00 0.12963
54.50 0.11685
55.00 0.10680
55.50 0.09712
56.00 0.08745
56.50 0.07862
57.00 0.07032
57.50 0.06202
58.00 0.05641
58.50 0.05181
59.00 0.04721
59.50 0.04273
60.00 0.03836
60.50 0.03400
61.00 0.02964
61.50 0.02729
62.00 0.02499
62.50 0.02269
63.00 0.02038
63.50 0.01808
64.00 0.01592
64.50 0.01458
65.00 0.01339
65.50 0.01220
66.00 0.01101
66.50 0.00982
67.00 0.00863
67.50 0.00784
68.00 0.00718
68.50 0.00652
69.00 0.00585
69.50 0.00516
70.00 0.00464
70.50 0.00430
71.00 0.00395
71.50 0.00361
72.00 0.00326
72.50 0.00292
73.00 0.00258
73.50 0.00228
74.00 0.00210
74.50 0.00193
75.00 0.00176
75.50 0.00159
76.00 0.00141
76.50 0.00124
77.00 0.00113
77.50 0.00104
78.00 0.00096
78.50 0.00088
79.00 0.00080
79.50 0.00072
80.00 0.00063
80.50 0.00059
81.00 0.00055
81.50 0.00051
82.00 0.00047
82.50 0.00043
83.00 0.00039
83.50 0.00035
84.00 0.00032
84.50 0.00030
85.00 0.00028
85.50 0.00026
86.00 0.00025
86.50 0.00024
87.00 0.00022
87.50 0.00021
88.00 0.00020
88.50 0.00020
89.00 0.00019
89.50 0.00019
90.00 0.00018
90.00 0.00018
90.50 0.00019
91.00 0.00019
91.50 0.00020
92.00 0.00020
92.50 0.00021
93.00 0.00022
93.50 0.00024
94.00 0.00025
94.50 0.00026
95.00 0.00028
95.50 0.00030
96.00 0.00032
96.50 0.00035
97.00 0.00039
97.50 0.00043
98.00 0.00047
98.50 0.00051
99.00 0.00055
99.50 0.00059
100.00 0.00063
100.50 0.00072
101.00 0.00080
101.50 0.00088
102.00 0.00096
102.50 0.00104
103.00 0.00113
103.50 0.00124
104.00 0.00141
104.50 0.00159
105.00 0.00176
105.50 0.00193
106.00 0.00210
106.50 0.00228
107.00 0.00258
107.50 0.00292
108.00 0.00326
108.50 0.00361
109.00 0.00395
109.50 0.00430
110.00 0.00464
110.50 0.00516
111.00 0.00585
111.50 0.00652
112.00 0.00718
112.50 0.00784
113.00 0.00863
113.50 0.00982
114.00 0.01101
114.50 0.01220
115.00 0.01339
115.50 0.01458
116.00 0.01592
116.50 0.01808
117.00 0.02038
117.50 0.02269
118.00 0.02499
118.50 0.02729
119.00 0.02964
119.50 0.03400
120.00 0.03836
120.50 0.04273
121.00 0.04721
121.50 0.05181
122.00 0.05641
122.50 0.06202
123.00 0.07032
123.50 0.07862
124.00 0.08745
124.50 0.09712
125.00 0.10680
125.50 0.11685
126.00 0.12963
126.50 0.14238
127.00 0.15814
127.50 0.17679
128.00 0.19541
128.50 0.21370
129.00 0.23084
129.50 0.24793
130.00 0.26898
130.50 0.29121
131.00 0.31337
131.50 0.33541
132.00 0.35822
132.50 0.38161
133.00 0.40489
133.50 0.42752
134.00 0.44786
134.50 0.46807
135.00 0.48935
135.50 0.50777
136.00 0.52790
136.50 0.54791
137.00 0.56442
137.50 0.58017
138.00 0.59581
138.50 0.61165
139.00 0.62606
139.50 0.64040
140.00 0.65457
140.50 0.66794
141.00 0.68112
141.50 0.69424
142.00 0.70728
142.50 0.71893
143.00 0.72662
143.50 0.73439
144.00 0.74216
144.50 0.75183
145.00 0.76282
145.50 0.77380
146.00 0.78476
146.50 0.79571
147.00 0.80327
147.50 0.81034
148.00 0.81741
148.50 0.82493
149.00 0.83336
149.50 0.84179
150.00 0.85023
150.50 0.85867
151.00 0.86556
151.50 0.87240
152.00 0.87925
152.50 0.88462
153.00 0.88997
153.50 0.89580
154.00 0.90250
154.50 0.90923
155.00 0.91599
155.50 0.92278
156.00 0.92899
156.50 0.93408
157.00 0.93921
157.50 0.94393
158.00 0.94819
158.50 0.95249
159.00 0.95683
159.50 0.96176
160.00 0.96689
160.50 0.97207
161.00 0.97730
161.50 0.98219
162.00 0.98572
162.50 0.98931
163.00 0.99294
163.50 0.99653
164.00 1.00017
164.50 1.00386
165.00 1.00761
165.50 1.01140
166.00 1.01411
166.50 1.01674
167.00 1.01935
167.50 1.02181
168.00 1.02432
168.50 1.02690
169.00 1.02953
169.50 1.03186
170.00 1.03376
170.50 1.03567
171.00 1.03789
171.50 1.04017
172.00 1.04213
172.50 1.04372
173.00 1.04538
173.50 1.04661
174.00 1.04785
174.50 1.04913
175.00 1.05034
175.50 1.05157
176.00 1.05197
176.50 1.05243
177.00 1.05295
177.50 1.05397
178.00 1.05458
178.50 1.05470
179.00 1.05514
179.50 1.05565
180.00 1.05622
180.00 1.05622
180.50 1.05565
181.00 1.05514
181.50 1.05470
182.00 1.05458
182.50 1.05397
183.00 1.05295
183.50 1.05243
184.00 1.05197
184.50 1.05157
185.00 1.05034
185.50 1.04913
186.00 1.04785
186.50 1.04661
187.00 1.04538
187.50 1.04372
188.00 1.04213
188.50 1.04017
189.00 1.03789
189.50 1.03567
190.00 1.03376
190.50 1.03186
191.00 1.02953
191.50 1.02690
192.00 1.02432
192.50 1.02181
193.00 1.01935
193.50 1.01674
194.00 1.01411
194.50 1.01140
195.00 1.00761
195.50 1.00386
196.00 1.00017
196.50 0.99653
197.00 0.99294
197.50 0.98931
198.00 0.98572
198.50 0.98219
199.00 0.97730
199.50 0.97207
200.00 0.96689
200.50 0.96176
201.00 0.95683
201.50 0.95249
202.00 0.94819
202.50 0.94393
203.00 0.93921
203.50 0.93408
204.00 0.92899
204.50 0.92278
205.00 0.91599
205.50 0.90923
206.00 0.90250
206.50 0.89580
207.00 0.88997
207.50 0.88462
208.00 0.87925
208.50 0.87240
209.00 0.86556
209.50 0.85867
210.00 0.85023
210.50 0.84179
211.00 0.83336
211.50 0.82493
212.00 0.81741
212.50 0.81034
213.00 0.80327
213.50 0.79571
214.00 0.78476
214.50 0.77380
215.00 0.76282
215.50 0.75183
216.00 0.74216
216.50 0.73439
217.00 0.72662
217.50 0.71893
218.00 0.70728
218.50 0.69424
219.00 0.68112
219.50 0.66794
220.00 0.65457
220.50 0.64040
221.00 0.62606
221.50 0.61165
222.00 0.59581
222.50 0.58017
223.00 0.56442
223.50 0.54791
224.00 0.52790
224.50 0.50777
225.00 0.48935
225.50 0.46807
226.00 0.44786
226.50 0.42752
227.00 0.40489
227.50 0.38161
228.00 0.35822
228.50 0.33541
229.00 0.31337
229.50 0.29121
230.00 0.26898
230.50 0.24793
231.00 0.23084
231.50 0.21370
232.00 0.19541
232.50 0.17679
233.00 0.15814
233.50 0.14238
234.00 0.12963
234.50 0.11685
235.00 0.10680
235.50 0.09712
236.00 0.08745
236.50 0.07862
237.00 0.07032
237.50 0.06202
238.00 0.05641
238.50 0.05181
239.00 0.04721
239.50 0.04273
240.00 0.03836
240.50 0.03400
241.00 0.02964
241.50 0.02729
242.00 0.02499
242.50 0.02269
243.00 0.02038
243.50 0.01808
244.00 0.01592
244.50 0.01458
245.00 0.01339
245.50 0.01220
246.00 0.01101
246.50 0.00982
247.00 0.00863
247.50 0.00784
248.00 0.00718
248.50 0.00652
249.00 0.00585
249.50 0.00516
250.00 0.00464
250.50 0.00430
251.00 0.00395
251.50 0.00361
252.00 0.00326
252.50 0.00292
253.00 0.00258
253.50 0.00228
254.00 0.00210
254.50 0.00193
255.00 0.00176
255.50 0.00159
256.00 0.00141
256.50 0.00124
257.00 0.00113
257.50 0.00104
258.00 0.00096
258.50 0.00088
259.00 0.00080
259.50 0.00072
260.00 0.00063
260.50 0.00059
261.00 0.00055
261.50 0.00051
262.00 0.00047
262.50 0.00043
263.00 0.00039
263.50 0.00035
264.00 0.00032
264.50 0.00030
265.00 0.00028
265.50 0.00026
266.00 0.00025
266.50 0.00024
267.00 0.00022
267.50 0.00021
268.00 0.00020
268.50 0.00020
269.00 0.00019
269.50 0.00019
270.00 0.00018
270.00 0.00018
270.50 0.00019
271.00 0.00019
271.50 0.00020
272.00 0.00020
272.50 0.00021
273.00 0.00022
273.50 0.00024
274.00 0.00025
274.50 0.00026
275.00 0.00028
275.50 0.00030
276.00 0.00032
276.50 0.00035
277.00 0.00039
277.50 0.00043
278.00 0.00047
278.50 0.00051
279.00 0.00055
279.50 0.00059
280.00 0.00063
280.50 0.00072
281.00 0.00080
281.50 0.00088
282.00 0.00096
282.50 0.00104
283.00 0.00113
283.50 0.00124
284.00 0.00141
284.50 0.00159
285.00 0.00176
285.50 0.00193
286.00 0.00210
286.50 0.00228
287.00 0.00258
287.50 0.00292
288.00 0.00326
288.50 0.00361
289.00 0.00395
289.50 0.00430
290.00 0.00464
290.50 0.00516
291.00 0.00585
291.50 0.00652
292.00 0.00718
292.50 0.00784
293.00 0.00863
293.50 0.00982
294.00 0.01101
294.50 0.01220
295.00 0.01339
295.50 0.01458
296.00 0.01592
296.50 0.01808
297.00 0.02038
297.50 0.02269
298.00 0.02499
298.50 0.02729
299.00 0.02964
299.50 0.03400
300.00 0.03836
300.50 0.04273
301.00 0.04721
301.50 0.05181
302.00 0.05641
302.50 0.06202
303.00 0.07032
303.50 0.07862
304.00 0.08745
304.50 0.09712
305.00 0.10680
305.50 0.11685
306.00 0.12963
306.50 0.14238
307.00 0.15814
307.50 0.17679
308.00 0.19541
308.50 0.21370
309.00 0.23084
309.50 0.24793
310.00 0.26898
310.50 0.29121
311.00 0.31337
311.50 0.33541
312.00 0.35822
312.50 0.38161
313.00 0.40489
313.50 0.42752
314.00 0.44786
314.50 0.46807
315.00 0.48935
315.50 0.50777
316.00 0.52790
316.50 0.54791
317.00 0.56442
317.50 0.58017
318.00 0.59581
318.50 0.61165
319.00 0.62606
319.50 0.64040
320.00 0.65457
320.50 0.66794
321.00 0.68112
321.50 0.69424
322.00 0.70728
322.50 0.71893
323.00 0.72662
323.50 0.73439
324.00 0.74216
324.50 0.75183
325.00 0.76282
325.50 0.77380
326.00 0.78476
326.50 0.79571
327.00 0.80327
327.50 0.81034
328.00 0.81741
328.50 0.82493
329.00 0.83336
329.50 0.84179
330.00 0.85023
330.50 0.85867
331.00 0.86556
331.50 0.87240
332.00 0.87925
332.50 0.88462
333.00 0.88997
333.50 0.89580
334.00 0.90250
334.50 0.90923
335.00 0.91599
335.50 0.92278
336.00 0.92899
336.50 0.93408
337.00 0.93921
337.50 0.94393
338.00 0.94819
338.50 0.95249
339.00 0.95683
339.50 0.96176
340.00 0.96689
340.50 0.97207
341.00 0.97730
341.50 0.98219
342.00 0.98572
342.50 0.98931
343.00 0.99294
343.50 0.99653
344.00 1.00017
344.50 1.00386
345.00 1.00761
345.50 1.01140
346.00 1.01411
346.50 1.01674
347.00 1.01935
347.50 1.02181
348.00 1.02432
348.50 1.02690
349.00 1.02953
349.50 1.03186
350.00 1.03376
350.50 1.03567
351.00 1.03789
351.50 1.04017
352.00 1.04213
352.50 1.04372
353.00 1.04538
353.50 1.04661
354.00 1.04785
354.50 1.04913
355.00 1.05034
355.50 1.05157
356.00 1.05197
356.50 1.05243
357.00 1.05295
357.50 1.05397
358.00 1.05458
358.50 1.05470
359.00 1.05514
359.50 1.05565
360.00 1.05622
