phi[deg] B[T]
0.00 1.99055
0.50 1.99052
1.00 1.99063
1.50 1.99090
2.00 1.99132
2.50 1.99195
3.00 1.99215
3.50 1.99321
4.00 1.99442
4.50 1.99576
5.00 1.99724
5.50 1.99887
6.00 2.00075
6.50 2.00277
7.00 2.00494
7.50 2.00558
8.00 2.00619
8.50 2.00726
9.00 2.00887
9.50 2.01060
10.00 2.01246
10.50 2.01176
11.00 2.01027
11.50 2.00934
12.00 2.00879
12.50 2.00834
13.00 2.00800
13.50 2.00754
14.00 2.00578
14.50 2.00314
15.00 1.99795
15.50 1.99339
16.00 1.99044
16.50 1.98757
17.00 1.98478
17.50 1.98102
18.00 1.97413
18.50 1.96730
19.00 1.96078
19.50 1.95634
20.00 1.95194
20.50 1.94593
21.00 1.93740
21.50 1.92892
22.00 1.91938
22.50 1.90851
23.00 1.89766
23.50 1.88684
24.00 1.87323
24.50 1.85899
25.00 1.84478
25.50 1.83047
26.00 1.81359
26.50 1.79723
27.00 1.78105
27.50 1.76489
28.00 1.74780
28.50 1.72951
29.00 1.71110
29.50 1.69183
30.00 1.67258
30.50 1.65335
31.00 1.63221
31.50 1.61005
32.00 1.59012
32.50 1.57020
33.00 1.55028
33.50 1.52907
34.00 1.50617
34.50 1.48327
35.00 1.45960
35.50 1.43509
36.00 1.41059
36.50 1.38609
37.00 1.36126
37.50 1.33567
38.00 1.31067
38.50 1.28567
39.00 1.26069
39.50 1.23549
40.00 1.21004
40.50 1.18565
41.00 1.16126
41.50 1.13686
42.00 1.11197
42.50 1.08811
43.00 1.06495
43.50 1.04185
44.00 1.01893
44.50 0.99601
45.00 0.97286
45.50 0.95056
46.00 0.92879
46.50 0.90701
47.00 0.88597
47.50 0.86556
48.00 0.84400
48.50 0.82157
49.00 0.80130
49.50 0.78132
50.00 0.76098
50.50 0.73936
51.00 0.71989
51.50 0.70036
52.00 0.68077
52.50 0.66101
53.00 0.63812
53.50 0.61696
54.00 0.59653
54.50 0.57602
55.00 0.55544
55.50 0.53456
56.00 0.51162
56.50 0.49077
57.00 0.46984
57.50 0.44881
58.00 0.42776
58.50 0.40751
59.00 0.38718
59.50 0.36462
60.00 0.34199
60.50 0.31929
61.00 0.29653
61.50 0.27420
62.00 0.25758
62.50 0.24113
63.00 0.22463
63.50 0.20808
64.00 0.19147
64.50 0.17401
65.00 0.16256
65.50 0.15132
66.00 0.14008
66.50 0.12877
67.00 0.11735
67.50 0.10591
68.00 0.09681
68.50 0.09050
69.00 0.08419
69.50 0.07787
70.00 0.07144
70.50 0.06499
71.00 0.05855
71.50 0.05249
72.00 0.04874
72.50 0.04524
73.00 0.04175
73.50 0.03825
74.00 0.03476
74.50 0.03128
75.00 0.02878
75.50 0.02685
76.00 0.02492
76.50 0.02299
77.00 0.02107
77.50 0.01907
78.00 0.01707
78.50 0.01578
79.00 0.01475
79.50 0.01372
80.00 0.01269
80.50 0.01166
81.00 0.01063
81.50 0.00962
82.00 0.00890
82.50 0.00831
83.00 0.00775
83.50 0.00720
84.00 0.00664
84.50 0.00614
85.00 0.00585
85.50 0.00555
86.00 0.00526
86.50 0.00495
87.00 0.00464
87.50 0.00454
88.00 0.00442
88.50 0.00429
89.00 0.00417
89.50 0.00405
90.00 0.00392
90.00 0.00392
90.50 0.00405
91.00 0.00417
91.50 0.00429
92.00 0.00442
92.50 0.00454
93.00 0.00464
93.50 0.00495
94.00 0.00526
94.50 0.00555
95.00 0.00585
95.50 0.00614
96.00 0.00664
96.50 0.00720
97.00 0.00775
97.50 0.00831
98.00 0.00890
98.50 0.00962
99.00 0.01063
99.50 0.01166
100.00 0.01269
100.50 0.01372
101.00 0.01475
101.50 0.01578
102.00 0.01707
102.50 0.01907
103.00 0.02107
103.50 0.02299
104.00 0.02492
104.50 0.02685
105.00 0.02878
105.50 0.03128
106.00 0.03476
106.50 0.03825
107.00 0.04175
107.50 0.04524
108.00 0.04874
108.50 0.05249
109.00 0.05855
109.50 0.06499
110.00 0.07144
110.50 0.07787
111.00 0.08419
111.50 0.09050
112.00 0.09681
112.50 0.10591
113.00 0.11735
113.50 0.12877
114.00 0.14008
114.50 0.15132
115.00 0.16256
115.50 0.17401
116.00 0.19147
116.50 0.20808
117.00 0.22463
117.50 0.24113
118.00 0.25758
118.50 0.27420
119.00 0.29653
119.50 0.31929
120.00 0.34199
120.50 0.36462
121.00 0.38718
121.50 0.40751
122.00 0.42776
122.50 0.44881
123.00 0.46984
123.50 0.49077
124.00 0.51162
124.50 0.53456
125.00 0.55544
125.50 0.57602
126.00 0.59653
126.50 0.61696
127.00 0.63812
127.50 0.66101
128.00 0.68077
128.50 0.70036
129.00 0.71989
129.50 0.73936
130.00 0.76098
130.50 0.78132
131.00 0.80130
131.50 0.82157
132.00 0.84400
132.50 0.86556
133.00 0.88597
133.50 0.90701
134.00 0.92879
134.50 0.95056
135.00 0.97286
135.50 0.99601
136.00 1.01893
136.50 1.04185
137.00 1.06495
137.50 1.08811
138.00 1.11197
138.50 1.13686
139.00 1.16126
139.50 1.18565
140.00 1.21004
140.50 1.23549
141.00 1.26069
141.50 1.28567
142.00 1.31067
142.50 1.33567
143.00 1.36126
143.50 1.38609
144.00 1.41059
144.50 1.43509
145.00 1.45960
145.50 1.48327
146.00 1.50617
146.50 1.52907
147.00 1.55028
147.50 1.57020
148.00 1.59012
148.50 1.61005
149.00 1.63221
149.50 1.65335
150.00 1.67258
150.50 1.69183
151.00 1.71110
151.50 1.72951
152.00 1.74780
152.50 1.76489
153.00 1.78105
153.50 1.79723
154.00 1.81359
154.50 1.83047
155.00 1.84478
155.50 1.85899
156.00 1.87323
156.50 1.88684
157.00 1.89766
157.50 1.90851
158.00 1.91938
158.50 1.92892
159.00 1.93740
159.50 1.94593
160.00 1.95194
160.50 1.95634
161.00 1.96078
161.50 1.96730
162.00 1.97413
162.50 1.98102
163.00 1.98478
163.50 1.98757
164.00 1.99044
164.50 1.99339
165.00 1.99795
165.50 2.00314
166.00 2.00578
166.50 2.00754
167.00 2.00800
167.50 2.00834
168.00 2.00879
168.50 2.00934
169.00 2.01027
169.50 2.01176
170.00 2.01246
170.50 2.01060
171.00 2.00887
171.50 2.00726
172.00 2.00619
172.50 2.00558
173.00 2.00494
173.50 2.00277
174.00 2.00075
174.50 1.99887
175.00 1.99724
175.50 1.99576
176.00 1.99442
176.50 1.99321
177.00 1.99215
177.50 1.99195
178.00 1.99132
178.50 1.99090
179.00 1.99063
179.50 1.99052
180.00 1.99055
180.00 1.99055
180.50 1.99052
181.00 1.99063
181.50 1.99090
182.00 1.99132
182.50 1.99195
183.00 1.99215
183.50 1.99321
184.00 1.99442
184.50 1.99576
185.00 1.99724
185.50 1.99887
186.00 2.00075
186.50 2.00277
187.00 2.00494
187.50 2.00558
188.00 2.00619
188.50 2.00726
189.00 2.00887
189.50 2.01060
190.00 2.01246
190.50 2.01176
191.00 2.01027
191.50 2.00934
192.00 2.00879
192.50 2.00834
193.00 2.00800
193.50 2.00754
194.00 2.00578
194.50 2.00314
195.00 1.99795
195.50 1.99339
196.00 1.99044
196.50 1.98757
197.00 1.98478
197.50 1.98102
198.00 1.97413
198.50 1.96730
199.00 1.96078
199.50 1.95634
200.00 1.95194
200.50 1.94593
201.00 1.93740
201.50 1.92892
202.00 1.91938
202.50 1.90851
203.00 1.89766
203.50 1.88684
204.00 1.87323
204.50 1.85899
205.00 1.84478
205.50 1.83047
206.00 1.81359
206.50 1.79723
207.00 1.78105
207.50 1.76489
208.00 1.74780
208.50 1.72951
209.00 1.71110
209.50 1.69183
210.00 1.67258
210.50 1.65335
211.00 1.63221
211.50 1.61005
212.00 1.59012
212.50 1.57020
213.00 1.55028
213.50 1.52907
214.00 1.50617
214.50 1.48327
215.00 1.45960
215.50 1.43509
216.00 1.41059
216.50 1.38609
217.00 1.36126
217.50 1.33567
218.00 1.31067
218.50 1.28567
219.00 1.26069
219.50 1.23549
220.00 1.21004
220.50 1.18565
221.00 1.16126
221.50 1.13686
222.00 1.11197
222.50 1.08811
223.00 1.06495
223.50 1.04185
224.00 1.01893
224.50 0.99601
225.00 0.97286
225.50 0.95056
226.00 0.92879
226.50 0.90701
227.00 0.88597
227.50 0.86556
228.00 0.84400
228.50 0.82157
229.00 0.80130
229.50 0.78132
230.00 0.76098
230.50 0.73936
231.00 0.71989
231.50 0.70036
232.00 0.68077
232.50 0.66101
233.00 0.63812
233.50 0.61696
234.00 0.59653
234.50 0.57602
235.00 0.55544
235.50 0.53456
236.00 0.51162
236.50 0.49077
237.00 0.46984
237.50 0.44881
238.00 0.42776
238.50 0.40751
239.00 0.38718
239.50 0.36462
240.00 0.34199
240.50 0.31929
241.00 0.29653
241.50 0.27420
242.00 0.25758
242.50 0.24113
243.00 0.22463
243.50 0.20808
244.00 0.19147
244.50 0.17401
245.00 0.16256
245.50 0.15132
246.00 0.14008
246.50 0.12877
247.00 0.11735
247.50 0.10591
248.00 0.09681
248.50 0.09050
249.00 0.08419
249.50 0.07787
250.00 0.07144
250.50 0.06499
251.00 0.05855
251.50 0.05249
252.00 0.04874
252.50 0.04524
253.00 0.04175
253.50 0.03825
254.00 0.03476
254.50 0.03128
255.00 0.02878
255.50 0.02685
256.00 0.02492
256.50 0.02299
257.00 0.02107
257.50 0.01907
258.00 0.01707
258.50 0.01578
259.00 0.01475
259.50 0.01372
260.00 0.01269
260.50 0.01166
261.00 0.01063
261.50 0.00962
262.00 0.00890
262.50 0.00831
263.00 0.00775
263.50 0.00720
264.00 0.00664
264.50 0.00614
265.00 0.00585
265.50 0.00555
266.00 0.00526
266.50 0.00495
267.00 0.00464
267.50 0.00454
268.00 0.00442
268.50 0.00429
269.00 0.00417
269.50 0.00405
270.00 0.00392
270.00 0.00392
270.50 0.00405
271.00 0.00417
271.50 0.00429
272.00 0.00442
272.50 0.00454
273.00 0.00464
273.50 0.00495
274.00 0.00526
274.50 0.00555
275.00 0.00585
275.50 0.00614
276.00 0.00664
276.50 0.00720
277.00 0.00775
277.50 0.00831
278.00 0.00890
278.50 0.00962
279.00 0.01063
279.50 0.01166
280.00 0.01269
280.50 0.01372
281.00 0.01475
281.50 0.01578
282.00 0.01707
282.50 0.01907
283.00 0.02107
283.50 0.02299
284.00 0.02492
284.50 0.02685
285.00 0.02878
285.50 0.03128
286.00 0.03476
286.50 0.03825
287.00 0.04175
287.50 0.04524
288.00 0.04874
288.50 0.05249
289.00 0.05855
289.50 0.06499
290.00 0.07144
290.50 0.07787
291.00 0.08419
291.50 0.09050
292.00 0.09681
292.50 0.10591
293.00 0.11735
293.50 0.12877
294.00 0.14008
294.50 0.15132
295.00 0.16256
295.50 0.17401
296.00 0.19147
296.50 0.20808
297.00 0.22463
297.50 0.24113
298.00 0.25758
298.50 0.27420
299.00 0.29653
299.50 0.31929
300.00 0.34199
300.50 0.36462
301.00 0.38718
301.50 0.40751
302.00 0.42776
302.50 0.44881
303.00 0.46984
303.50 0.49077
304.00 0.51162
304.50 0.53456
305.00 0.55544
305.50 0.57602
306.00 0.59653
306.50 0.61696
307.00 0.63812
307.50 0.66101
308.00 0.68077
308.50 0.70036
309.00 0.71989
309.50 0.73936
310.00 0.76098
310.50 0.78132
311.00 0.80130
311.50 0.82157
312.00 0.84400
312.50 0.86556
313.00 0.88597
313.50 0.90701
314.00 0.92879
314.50 0.95056
315.00 0.97286
315.50 0.99601
316.00 1.01893
316.50 1.04185
317.00 1.06495
317.50 1.08811
318.00 1.11197
318.50 1.13686
319.00 1.16126
319.50 1.18565
320.00 1.21004
320.50 1.23549
321.00 1.26069
321.50 1.28567
322.00 1.31067
322.50 1.33567
323.00 1.36126
323.50 1.38609
324.00 1.41059
324.50 1.43509
325.00 1.45960
325.50 1.48327
326.00 1.50617
326.50 1.52907
327.00 1.55028
327.50 1.57020
328.00 1.59012
328.50 1.61005
329.00 1.63221
329.50 1.65335
330.00 1.67258
330.50 1.69183
331.00 1.71110
331.50 1.72951
332.00 1.74780
332.50 1.76489
333.00 1.78105
333.50 1.79723
334.00 1.81359
334.50 1.83047
335.00 1.84478
335.50 1.85899
336.00 1.87323
336.50 1.88684
337.00 1.89766
337.50 1.90851
338.00 1.91938
338.50 1.92892
339.00 1.93740
339.50 1.94593
340.00 1.95194
340.50 1.95634
341.00 1.96078
341.50 1.96730
342.00 1.97413
342.50 1.98102
343.00 1.98478
343.50 1.98757
344.00 1.99044
344.50 1.99339
345.00 1.99795
345.50 2.00314
346.00 2.00578
346.50 2.00754
347.00 2.00800
347.50 2.00834
348.00 2.00879
348.50 2.00934
349.00 2.01027
349.50 2.01176
350.00 2.01246
350.50 2.01060
351.00 2.00887
351.50 2.00726
352.00 2.00619
352.50 2.00558
353.00 2.00494
353.50 2.00277
354.00 2.00075
354.50 1.99887
355.00 1.99724
355.50 1.99576
356.00 1.99442
356.50 1.99321
357.00 1.99215
357.50 1.99195
358.00 1.99132
358.50 1.99090
359.00 1.99063
359.50 1.99052
360.00 1.99055
