phi[deg] B[T]
0.00 1.12214
0.50 1.12165
1.00 1.12132
1.50 1.12055
2.00 1.11896
2.50 1.11754
3.00 1.11631
3.50 1.11360
4.00 1.11078
4.50 1.10796
5.00 1.10580
5.50 1.10279
6.00 1.09763
6.50 1.09245
7.00 1.08847
7.50 1.08473
8.00 1.07705
8.50 1.06933
9.00 1.06155
9.50 1.05443
10.00 1.04482
10.50 1.03507
11.00 1.02519
11.50 1.01546
12.00 1.00600
12.50 0.99052
13.00 0.97253
13.50 0.95439
14.00 0.93609
14.50 0.91731
15.00 0.89607
15.50 0.87459
16.00 0.85288
16.50 0.82916
17.00 0.80389
17.50 0.77174
18.00 0.73925
18.50 0.70653
19.00 0.67357
19.50 0.64183
20.00 0.61045
20.50 0.57884
21.00 0.54699
21.50 0.51185
22.00 0.46965
22.50 0.43511
23.00 0.40398
23.50 0.37272
24.00 0.34132
24.50 0.30716
25.00 0.28305
25.50 0.26056
26.00 0.23802
26.50 0.21545
27.00 0.19173
27.50 0.17054
28.00 0.15662
28.50 0.14501
29.00 0.13341
29.50 0.12182
30.00 0.11024
30.50 0.09867
31.00 0.08711
31.50 0.07592
32.00 0.06633
32.50 0.05992
33.00 0.05519
33.50 0.05097
34.00 0.04675
34.50 0.04254
35.00 0.03834
35.50 0.03414
36.00 0.02995
36.50 0.02596
37.00 0.02329
37.50 0.02100
38.00 0.01936
38.50 0.01773
39.00 0.01597
39.50 0.01421
40.00 0.01245
40.50 0.01124
41.00 0.01029
41.50 0.00933
42.00 0.00838
42.50 0.00744
43.00 0.00674
43.50 0.00615
44.00 0.00556
44.50 0.00498
45.00 0.00439
45.50 0.00403
46.00 0.00368
46.50 0.00333
47.00 0.00298
47.50 0.00262
48.00 0.00242
48.50 0.00222
49.00 0.00202
49.50 0.00182
50.00 0.00162
50.50 0.00146
51.00 0.00132
51.50 0.00121
52.00 0.00112
52.50 0.00103
53.00 0.00094
53.50 0.00085
54.00 0.00077
54.50 0.00069
55.00 0.00065
55.50 0.00061
56.00 0.00057
56.50 0.00054
57.00 0.00050
57.50 0.00046
58.00 0.00043
58.50 0.00040
59.00 0.00038
59.50 0.00037
60.00 0.00035
60.50 0.00033
61.00 0.00032
61.50 0.00030
62.00 0.00029
62.50 0.00027
63.00 0.00027
63.50 0.00026
64.00 0.00025
64.50 0.00024
65.00 0.00024
65.50 0.00023
66.00 0.00022
66.50 0.00022
67.00 0.00021
67.50 0.00021
68.00 0.00020
68.50 0.00019
69.00 0.00019
69.50 0.00018
70.00 0.00018
70.50 0.00018
71.00 0.00017
71.50 0.00017
72.00 0.00016
72.50 0.00016
73.00 0.00015
73.50 0.00015
74.00 0.00014
74.50 0.00014
75.00 0.00013
75.50 0.00013
76.00 0.00013
76.50 0.00012
77.00 0.00012
77.50 0.00011
78.00 0.00011
78.50 0.00010
79.00 0.00010
79.50 0.00010
80.00 0.00009
80.50 0.00009
81.00 0.00008
81.50 0.00008
82.00 0.00007
82.50 0.00007
83.00 0.00006
83.50 0.00006
84.00 0.00006
84.50 0.00005
85.00 0.00005
85.50 0.00004
86.00 0.00004
86.50 0.00003
87.00 0.00003
87.50 0.00002
88.00 0.00002
88.50 0.00002
89.00 0.00002
89.50 0.00002
90.00 0.00001
90.00 0.00001
90.50 0.00002
91.00 0.00002
91.50 0.00002
92.00 0.00002
92.50 0.00002
93.00 0.00003
93.50 0.00003
94.00 0.00004
94.50 0.00004
95.00 0.00005
95.50 0.00005
96.00 0.00006
96.50 0.00006
97.00 0.00006
97.50 0.00007
98.00 0.00007
98.50 0.00008
99.00 0.00008
99.50 0.00009
100.00 0.00009
100.50 0.00010
101.00 0.00010
101.50 0.00010
102.00 0.00011
102.50 0.00011
103.00 0.00012
103.50 0.00012
104.00 0.00013
104.50 0.00013
105.00 0.00013
105.50 0.00014
106.00 0.00014
106.50 0.00015
107.00 0.00015
107.50 0.00016
108.00 0.00016
108.50 0.00017
109.00 0.00017
109.50 0.00018
110.00 0.00018
110.50 0.00018
111.00 0.00019
111.50 0.00019
112.00 0.00020
112.50 0.00021
113.00 0.00021
113.50 0.00022
114.00 0.00022
114.50 0.00023
115.00 0.00024
115.50 0.00024
116.00 0.00025
116.50 0.00026
117.00 0.00027
117.50 0.00027
118.00 0.00029
118.50 0.00030
119.00 0.00032
119.50 0.00033
120.00 0.00035
120.50 0.00037
121.00 0.00038
121.50 0.00040
122.00 0.00043
122.50 0.00046
123.00 0.00050
123.50 0.00054
124.00 0.00057
124.50 0.00061
125.00 0.00065
125.50 0.00069
126.00 0.00077
126.50 0.00085
127.00 0.00094
127.50 0.00103
128.00 0.00112
128.50 0.00121
129.00 0.00132
129.50 0.00146
130.00 0.00162
130.50 0.00182
131.00 0.00202
131.50 0.00222
132.00 0.00242
132.50 0.00262
133.00 0.00298
133.50 0.00333
134.00 0.00368
134.50 0.00403
135.00 0.00439
135.50 0.00498
136.00 0.00556
136.50 0.00615
137.00 0.00674
137.50 0.00744
138.00 0.00838
138.50 0.00933
139.00 0.01029
139.50 0.01124
140.00 0.01245
140.50 0.01421
141.00 0.01597
141.50 0.01773
142.00 0.01936
142.50 0.02100
143.00 0.02329
143.50 0.02596
144.00 0.02995
144.50 0.03414
145.00 0.03834
145.50 0.04254
146.00 0.04675
146.50 0.05097
147.00 0.05519
147.50 0.05992
148.00 0.06633
148.50 0.07592
149.00 0.08711
149.50 0.09867
150.00 0.11024
150.50 0.12182
151.00 0.13341
151.50 0.14501
152.00 0.15662
152.50 0.17054
153.00 0.19173
153.50 0.21545
154.00 0.23802
154.50 0.26056
155.00 0.28305
155.50 0.30716
156.00 0.34132
156.50 0.37272
157.00 0.40398
157.50 0.43511
158.00 0.46965
158.50 0.51185
159.00 0.54699
159.50 0.57884
160.00 0.61045
160.50 0.64183
161.00 0.67357
161.50 0.70653
162.00 0.73925
162.50 0.77174
163.00 0.80389
163.50 0.82916
164.00 0.85288
164.50 0.87459
165.00 0.89607
165.50 0.91731
166.00 0.93609
166.50 0.95439
167.00 0.97253
167.50 0.99052
168.00 1.00600
168.50 1.01546
169.00 1.02519
169.50 1.03507
170.00 1.04482
170.50 1.05443
171.00 1.06155
171.50 1.06933
172.00 1.07705
172.50 1.08473
173.00 1.08847
173.50 1.09245
174.00 1.09763
174.50 1.10279
175.00 1.10580
175.50 1.10796
176.00 1.11078
176.50 1.11360
177.00 1.11631
177.50 1.11754
178.00 1.11896
178.50 1.12055
179.00 1.12132
179.50 1.12165
180.00 1.12214
180.00 1.12214
180.50 1.12165
181.00 1.12132
181.50 1.12055
182.00 1.11896
182.50 1.11754
183.00 1.11631
183.50 1.11360
184.00 1.11078
184.50 1.10796
185.00 1.10580
185.50 1.10279
186.00 1.09763
186.50 1.09245
187.00 1.08847
187.50 1.08473
188.00 1.07705
188.50 1.06933
189.00 1.06155
189.50 1.05443
190.00 1.04482
190.50 1.03507
191.00 1.02519
191.50 1.01546
192.00 1.00600
192.50 0.99052
193.00 0.97253
193.50 0.95439
194.00 0.93609
194.50 0.91731
195.00 0.89607
195.50 0.87459
196.00 0.85288
196.50 0.82916
197.00 0.80389
197.50 0.77174
198.00 0.73925
198.50 0.70653
199.00 0.67357
199.50 0.64183
200.00 0.61045
200.50 0.57884
201.00 0.54699
201.50 0.51185
202.00 0.46965
202.50 0.43511
203.00 0.40398
203.50 0.37272
204.00 0.34132
204.50 0.30716
205.00 0.28305
205.50 0.26056
206.00 0.23802
206.50 0.21545
207.00 0.19173
207.50 0.17054
208.00 0.15662
208.50 0.14501
209.00 0.13341
209.50 0.12182
210.00 0.11024
210.50 0.09867
211.00 0.08711
211.50 0.07592
212.00 0.06633
212.50 0.05992
213.00 0.05519
213.50 0.05097
214.00 0.04675
214.50 0.04254
215.00 0.03834
215.50 0.03414
216.00 0.02995
216.50 0.02596
217.00 0.02329
217.50 0.02100
218.00 0.01936
218.50 0.01773
219.00 0.01597
219.50 0.01421
220.00 0.01245
220.50 0.01124
221.00 0.01029
221.50 0.00933
222.00 0.00838
222.50 0.00744
223.00 0.00674
223.50 0.00615
224.00 0.00556
224.50 0.00498
225.00 0.00439
225.50 0.00403
226.00 0.00368
226.50 0.00333
227.00 0.00298
227.50 0.00262
228.00 0.00242
228.50 0.00222
229.00 0.00202
229.50 0.00182
230.00 0.00162
230.50 0.00146
231.00 0.00132
231.50 0.00121
232.00 0.00112
232.50 0.00103
233.00 0.00094
233.50 0.00085
234.00 0.00077
234.50 0.00069
235.00 0.00065
235.50 0.00061
236.00 0.00057
236.50 0.00054
237.00 0.00050
237.50 0.00046
238.00 0.00043
238.50 0.00040
239.00 0.00038
239.50 0.00037
240.00 0.00035
240.50 0.00033
241.00 0.00032
241.50 0.00030
242.00 0.00029
242.50 0.00027
243.00 0.00027
243.50 0.00026
244.00 0.00025
244.50 0.00024
245.00 0.00024
245.50 0.00023
246.00 0.00022
246.50 0.00022
247.00 0.00021
247.50 0.00021
248.00 0.00020
248.50 0.00019
249.00 0.00019
249.50 0.00018
250.00 0.00018
250.50 0.00018
251.00 0.00017
251.50 0.00017
252.00 0.00016
252.50 0.00016
253.00 0.00015
253.50 0.00015
254.00 0.00014
254.50 0.00014
255.00 0.00013
255.50 0.00013
256.00 0.00013
256.50 0.00012
257.00 0.00012
257.50 0.00011
258.00 0.00011
258.50 0.00010
259.00 0.00010
259.50 0.00010
260.00 0.00009
260.50 0.00009
261.00 0.00008
261.50 0.00008
262.00 0.00007
262.50 0.00007
263.00 0.00006
263.50 0.00006
264.00 0.00006
264.50 0.00005
265.00 0.00005
265.50 0.00004
266.00 0.00004
266.50 0.00003
267.00 0.00003
267.50 0.00002
268.00 0.00002
268.50 0.00002
269.00 0.00002
269.50 0.00002
270.00 0.00001
270.00 0.00001
270.50 0.00002
271.00 0.00002
271.50 0.00002
272.00 0.00002
272.50 0.00002
273.00 0.00003
273.50 0.00003
274.00 0.00004
274.50 0.00004
275.00 0.00005
275.50 0.00005
276.00 0.00006
276.50 0.00006
277.00 0.00006
277.50 0.00007
278.00 0.00007
278.50 0.00008
279.00 0.00008
279.50 0.00009
280.00 0.00009
280.50 0.00010
281.00 0.00010
281.50 0.00010
282.00 0.00011
282.50 0.00011
283.00 0.00012
283.50 0.00012
284.00 0.00013
284.50 0.00013
285.00 0.00013
285.50 0.00014
286.00 0.00014
286.50 0.00015
287.00 0.00015
287.50 0.00016
288.00 0.00016
288.50 0.00017
289.00 0.00017
289.50 0.00018
290.00 0.00018
290.50 0.00018
291.00 0.00019
291.50 0.00019
292.00 0.00020
292.50 0.00021
293.00 0.00021
293.50 0.00022
294.00 0.00022
294.50 0.00023
295.00 0.00024
295.50 0.00024
296.00 0.00025
296.50 0.00026
297.00 0.00027
297.50 0.00027
298.00 0.00029
298.50 0.00030
299.00 0.00032
299.50 0.00033
300.00 0.00035
300.50 0.00037
301.00 0.00038
301.50 0.00040
302.00 0.00043
302.50 0.00046
303.00 0.00050
303.50 0.00054
304.00 0.00057
304.50 0.00061
305.00 0.00065
305.50 0.00069
306.00 0.00077
306.50 0.00085
307.00 0.00094
307.50 0.00103
308.00 0.00112
308.50 0.00121
309.00 0.00132
309.50 0.00146
310.00 0.00162
310.50 0.00182
311.00 0.00202
311.50 0.00222
312.00 0.00242
312.50 0.00262
313.00 0.00298
313.50 0.00333
314.00 0.00368
314.50 0.00403
315.00 0.00439
315.50 0.00498
316.00 0.00556
316.50 0.00615
317.00 0.00674
317.50 0.00744
318.00 0.00838
318.50 0.00933
319.00 0.01029
319.50 0.01124
320.00 0.01245
320.50 0.01421
321.00 0.01597
321.50 0.01773
322.00 0.01936
322.50 0.02100
323.00 0.02329
323.50 0.02596
324.00 0.02995
324.50 0.03414
325.00 0.03834
325.50 0.04254
326.00 0.04675
326.50 0.05097
327.00 0.05519
327.50 0.05992
328.00 0.06633
328.50 0.07592
329.00 0.08711
329.50 0.09867
330.00 0.11024
330.50 0.12182
331.00 0.13341
331.50 0.14501
332.00 0.15662
332.50 0.17054
333.00 0.19173
333.50 0.21545
334.00 0.23802
334.50 0.26056
335.00 0.28305
335.50 0.30716
336.00 0.34132
336.50 0.37272
337.00 0.40398
337.50 0.43511
338.00 0.46965
338.50 0.51185
339.00 0.54699
339.50 0.57884
340.00 0.61045
340.50 0.64183
341.00 0.67357
341.50 0.70653
342.00 0.73925
342.50 0.77174
343.00 0.80389
343.50 0.82916
344.00 0.85288
344.50 0.87459
345.00 0.89607
345.50 0.91731
346.00 0.93609
346.50 0.95439
347.00 0.97253
347.50 0.99052
348.00 1.00600
348.50 1.01546
349.00 1.02519
349.50 1.03507
350.00 1.04482
350.50 1.05443
351.00 1.06155
351.50 1.06933
352.00 1.07705
352.50 1.08473
353.00 1.08847
353.50 1.09245
354.00 1.09763
354.50 1.10279
355.00 1.10580
355.50 1.10796
356.00 1.11078
356.50 1.11360
357.00 1.11631
357.50 1.11754
358.00 1.11896
358.50 1.12055
359.00 1.12132
359.50 1.12165
360.00 1.12214
