phi[deg] B[T]
0.00 1.12486
0.50 1.12438
1.00 1.12398
1.50 1.12365
2.00 1.12355
2.50 1.12313
3.00 1.12251
3.50 1.12222
4.00 1.12200
4.50 1.12186
5.00 1.12126
5.50 1.12038
6.00 1.11957
6.50 1.11865
7.00 1.11763
7.50 1.11669
8.00 1.11576
8.50 1.11485
9.00 1.11402
9.50 1.11325
10.00 1.11144
10.50 1.10946
11.00 1.10754
11.50 1.10570
12.00 1.10392
12.50 1.10226
13.00 1.10099
13.50 1.09974
14.00 1.09786
14.50 1.09597
15.00 1.09285
15.50 1.08978
16.00 1.08676
16.50 1.08380
17.00 1.08089
17.50 1.07818
18.00 1.07593
18.50 1.07373
19.00 1.06987
19.50 1.06573
20.00 1.06110
20.50 1.05566
21.00 1.05026
21.50 1.04490
22.00 1.03958
22.50 1.03429
23.00 1.02917
23.50 1.02416
24.00 1.01793
24.50 1.01131
25.00 1.00424
25.50 0.99706
26.00 0.98990
26.50 0.98278
27.00 0.97569
27.50 0.96863
28.00 0.96196
28.50 0.95554
29.00 0.94872
29.50 0.94187
30.00 0.93440
30.50 0.92599
31.00 0.91760
31.50 0.91041
32.00 0.90413
32.50 0.89786
33.00 0.89098
33.50 0.88044
34.00 0.87018
34.50 0.86265
35.00 0.85510
35.50 0.84753
36.00 0.83528
36.50 0.82594
37.00 0.81739
37.50 0.80872
38.00 0.79559
38.50 0.78238
39.00 0.76875
39.50 0.75358
40.00 0.73883
40.50 0.72360
41.00 0.70430
41.50 0.68669
42.00 0.66970
42.50 0.64850
43.00 0.62632
43.50 0.60529
44.00 0.58166
44.50 0.55800
45.00 0.53483
45.50 0.50746
46.00 0.48087
46.50 0.45503
47.00 0.42752
47.50 0.40094
48.00 0.37293
48.50 0.34734
49.00 0.32318
49.50 0.29893
50.00 0.27215
50.50 0.24821
51.00 0.22999
51.50 0.21172
52.00 0.19342
52.50 0.17397
53.00 0.15384
53.50 0.13913
54.00 0.12627
54.50 0.11605
55.00 0.10584
55.50 0.09563
56.00 0.08543
56.50 0.07588
57.00 0.06680
57.50 0.06006
58.00 0.05501
58.50 0.05060
59.00 0.04662
59.50 0.04264
60.00 0.03867
60.50 0.03471
61.00 0.03075
61.50 0.02680
62.00 0.02356
62.50 0.02074
63.00 0.01901
63.50 0.01754
64.00 0.01606
64.50 0.01457
65.00 0.01308
65.50 0.01160
66.00 0.01011
66.50 0.00919
67.00 0.00849
67.50 0.00779
68.00 0.00710
68.50 0.00640
69.00 0.00570
69.50 0.00501
70.00 0.00442
70.50 0.00408
71.00 0.00377
71.50 0.00345
72.00 0.00314
72.50 0.00283
73.00 0.00251
73.50 0.00220
74.00 0.00199
74.50 0.00183
75.00 0.00166
75.50 0.00150
76.00 0.00135
76.50 0.00121
77.00 0.00108
77.50 0.00099
78.00 0.00092
78.50 0.00084
79.00 0.00078
79.50 0.00071
80.00 0.00064
80.50 0.00057
81.00 0.00051
81.50 0.00048
82.00 0.00044
82.50 0.00040
83.00 0.00036
83.50 0.00034
84.00 0.00031
84.50 0.00028
85.00 0.00027
85.50 0.00025
86.00 0.00024
86.50 0.00022
87.00 0.00021
87.50 0.00020
88.00 0.00019
88.50 0.00018
89.00 0.00018
89.50 0.00017
90.00 0.00017
90.00 0.00017
90.50 0.00017
91.00 0.00018
91.50 0.00018
92.00 0.00019
92.50 0.00020
93.00 0.00021
93.50 0.00022
94.00 0.00024
94.50 0.00025
95.00 0.00027
95.50 0.00028
96.00 0.00031
96.50 0.00034
97.00 0.00036
97.50 0.00040
98.00 0.00044
98.50 0.00048
99.00 0.00051
99.50 0.00057
100.00 0.00064
100.50 0.00071
101.00 0.00078
101.50 0.00084
102.00 0.00092
102.50 0.00099
103.00 0.00108
103.50 0.00121
104.00 0.00135
104.50 0.00150
105.00 0.00166
105.50 0.00183
106.00 0.00199
106.50 0.00220
107.00 0.00251
107.50 0.00283
108.00 0.00314
108.50 0.00345
109.00 0.00377
109.50 0.00408
110.00 0.00442
110.50 0.00501
111.00 0.00570
111.50 0.00640
112.00 0.00710
112.50 0.00779
113.00 0.00849
113.50 0.00919
114.00 0.01011
114.50 0.01160
115.00 0.01308
115.50 0.01457
116.00 0.01606
116.50 0.01754
117.00 0.01901
117.50 0.02074
118.00 0.02356
118.50 0.02680
119.00 0.03075
119.50 0.03471
120.00 0.03867
120.50 0.04264
121.00 0.04662
121.50 0.05060
122.00 0.05501
122.50 0.06006
123.00 0.06680
123.50 0.07588
124.00 0.08543
124.50 0.09563
125.00 0.10584
125.50 0.11605
126.00 0.12627
126.50 0.13913
127.00 0.15384
127.50 0.17397
128.00 0.19342
128.50 0.21172
129.00 0.22999
129.50 0.24821
130.00 0.27215
130.50 0.29893
131.00 0.32318
131.50 0.34734
132.00 0.37293
132.50 0.40094
133.00 0.42752
133.50 0.45503
134.00 0.48087
134.50 0.50746
135.00 0.53483
135.50 0.55800
136.00 0.58166
136.50 0.60529
137.00 0.62632
137.50 0.64850
138.00 0.66970
138.50 0.68669
139.00 0.70430
139.50 0.72360
140.00 0.73883
140.50 0.75358
141.00 0.76875
141.50 0.78238
142.00 0.79559
142.50 0.80872
143.00 0.81739
143.50 0.82594
144.00 0.83528
144.50 0.84753
145.00 0.85510
145.50 0.86265
146.00 0.87018
146.50 0.88044
147.00 0.89098
147.50 0.89786
148.00 0.90413
148.50 0.91041
149.00 0.91760
149.50 0.92599
150.00 0.93440
150.50 0.94187
151.00 0.94872
151.50 0.95554
152.00 0.96196
152.50 0.96863
153.00 0.97569
153.50 0.98278
154.00 0.98990
154.50 0.99706
155.00 1.00424
155.50 1.01131
156.00 1.01793
156.50 1.02416
157.00 1.02917
157.50 1.03429
158.00 1.03958
158.50 1.04490
159.00 1.05026
159.50 1.05566
160.00 1.06110
160.50 1.06573
161.00 1.06987
161.50 1.07373
162.00 1.07593
162.50 1.07818
163.00 1.08089
163.50 1.08380
164.00 1.08676
164.50 1.08978
165.00 1.09285
165.50 1.09597
166.00 1.09786
166.50 1.09974
167.00 1.10099
167.50 1.10226
168.00 1.10392
168.50 1.10570
169.00 1.10754
169.50 1.10946
170.00 1.11144
170.50 1.11325
171.00 1.11402
171.50 1.11485
172.00 1.11576
172.50 1.11669
173.00 1.11763
173.50 1.11865
174.00 1.11957
174.50 1.12038
175.00 1.12126
175.50 1.12186
176.00 1.12200
176.50 1.12222
177.00 1.12251
177.50 1.12313
178.00 1.12355
178.50 1.12365
179.00 1.12398
179.50 1.12438
180.00 1.12486
180.00 1.12486
180.50 1.12438
181.00 1.12398
181.50 1.12365
182.00 1.12355
182.50 1.12313
183.00 1.12251
183.50 1.12222
184.00 1.12200
184.50 1.12186
185.00 1.12126
185.50 1.12038
186.00 1.11957
186.50 1.11865
187.00 1.11763
187.50 1.11669
188.00 1.11576
188.50 1.11485
189.00 1.11402
189.50 1.11325
190.00 1.11144
190.50 1.10946
191.00 1.10754
191.50 1.10570
192.00 1.10392
192.50 1.10226
193.00 1.10099
193.50 1.09974
194.00 1.09786
194.50 1.09597
195.00 1.09285
195.50 1.08978
196.00 1.08676
196.50 1.08380
197.00 1.08089
197.50 1.07818
198.00 1.07593
198.50 1.07373
199.00 1.06987
199.50 1.06573
200.00 1.06110
200.50 1.05566
201.00 1.05026
201.50 1.04490
202.00 1.03958
202.50 1.03429
203.00 1.02917
203.50 1.02416
204.00 1.01793
204.50 1.01131
205.00 1.00424
205.50 0.99706
206.00 0.98990
206.50 0.98278
207.00 0.97569
207.50 0.96863
208.00 0.96196
208.50 0.95554
209.00 0.94872
209.50 0.94187
210.00 0.93440
210.50 0.92599
211.00 0.91760
211.50 0.91041
212.00 0.90413
212.50 0.89786
213.00 0.89098
213.50 0.88044
214.00 0.87018
214.50 0.86265
215.00 0.85510
215.50 0.84753
216.00 0.83528
216.50 0.82594
217.00 0.81739
217.50 0.80872
218.00 0.79559
218.50 0.78238
219.00 0.76875
219.50 0.75358
220.00 0.73883
220.50 0.72360
221.00 0.70430
221.50 0.68669
222.00 0.66970
222.50 0.64850
223.00 0.62632
223.50 0.60529
224.00 0.58166
224.50 0.55800
225.00 0.53483
225.50 0.50746
226.00 0.48087
226.50 0.45503
227.00 0.42752
227.50 0.40094
228.00 0.37293
228.50 0.34734
229.00 0.32318
229.50 0.29893
230.00 0.27215
230.50 0.24821
231.00 0.22999
231.50 0.21172
232.00 0.19342
232.50 0.17397
233.00 0.15384
233.50 0.13913
234.00 0.12627
234.50 0.11605
235.00 0.10584
235.50 0.09563
236.00 0.08543
236.50 0.07588
237.00 0.06680
237.50 0.06006
238.00 0.05501
238.50 0.05060
239.00 0.04662
239.50 0.04264
240.00 0.03867
240.50 0.03471
241.00 0.03075
241.50 0.02680
242.00 0.02356
242.50 0.02074
243.00 0.01901
243.50 0.01754
244.00 0.01606
244.50 0.01457
245.00 0.01308
245.50 0.01160
246.00 0.01011
246.50 0.00919
247.00 0.00849
247.50 0.00779
248.00 0.00710
248.50 0.00640
249.00 0.00570
249.50 0.00501
250.00 0.00442
250.50 0.00408
251.00 0.00377
251.50 0.00345
252.00 0.00314
252.50 0.00283
253.00 0.00251
253.50 0.00220
254.00 0.00199
254.50 0.00183
255.00 0.00166
255.50 0.00150
256.00 0.00135
256.50 0.00121
257.00 0.00108
257.50 0.00099
258.00 0.00092
258.50 0.00084
259.00 0.00078
259.50 0.00071
260.00 0.00064
260.50 0.00057
261.00 0.00051
261.50 0.00048
262.00 0.00044
262.50 0.00040
263.00 0.00036
263.50 0.00034
264.00 0.00031
264.50 0.00028
265.00 0.00027
265.50 0.00025
266.00 0.00024
266.50 0.00022
267.00 0.00021
267.50 0.00020
268.00 0.00019
268.50 0.00018
269.00 0.00018
269.50 0.00017
270.00 0.00017
270.00 0.00017
270.50 0.00017
271.00 0.00018
271.50 0.00018
272.00 0.00019
272.50 0.00020
273.00 0.00021
273.50 0.00022
274.00 0.00024
274.50 0.00025
275.00 0.00027
275.50 0.00028
276.00 0.00031
276.50 0.00034
277.00 0.00036
277.50 0.00040
278.00 0.00044
278.50 0.00048
279.00 0.00051
279.50 0.00057
280.00 0.00064
280.50 0.00071
281.00 0.00078
281.50 0.00084
282.00 0.00092
282.50 0.00099
283.00 0.00108
283.50 0.00121
284.00 0.00135
284.50 0.00150
285.00 0.00166
285.50 0.00183
286.00 0.00199
286.50 0.00220
287.00 0.00251
287.50 0.00283
288.00 0.00314
288.50 0.00345
289.00 0.00377
289.50 0.00408
290.00 0.00442
290.50 0.00501
291.00 0.00570
291.50 0.00640
292.00 0.00710
292.50 0.00779
293.00 0.00849
293.50 0.00919
294.00 0.01011
294.50 0.01160
295.00 0.01308
295.50 0.01457
296.00 0.01606
296.50 0.01754
297.00 0.01901
297.50 0.02074
298.00 0.02356
298.50 0.02680
299.00 0.03075
299.50 0.03471
300.00 0.03867
300.50 0.04264
301.00 0.04662
301.50 0.05060
302.00 0.05501
302.50 0.06006
303.00 0.06680
303.50 0.07588
304.00 0.08543
304.50 0.09563
305.00 0.10584
305.50 0.11605
306.00 0.12627
306.50 0.13913
307.00 0.15384
307.50 0.17397
308.00 0.19342
308.50 0.21172
309.00 0.22999
309.50 0.24821
310.00 0.27215
310.50 0.29893
311.00 0.32318
311.50 0.34734
312.00 0.37293
312.50 0.40094
313.00 0.42752
313.50 0.45503
314.00 0.48087
314.50 0.50746
315.00 0.53483
315.50 0.55800
316.00 0.58166
316.50 0.60529
317.00 0.62632
317.50 0.64850
318.00 0.66970
318.50 0.68669
319.00 0.70430
319.50 0.72360
320.00 0.73883
320.50 0.75358
321.00 0.76875
321.50 0.78238
322.00 0.79559
322.50 0.80872
323.00 0.81739
323.50 0.82594
324.00 0.83528
324.50 0.84753
325.00 0.85510
325.50 0.86265
326.00 0.87018
326.50 0.88044
327.00 0.89098
327.50 0.89786
328.00 0.90413
328.50 0.91041
329.00 0.91760
329.50 0.92599
330.00 0.93440
330.50 0.94187
331.00 0.94872
331.50 0.95554
332.00 0.96196
332.50 0.96863
333.00 0.97569
333.50 0.98278
334.00 0.98990
334.50 0.99706
335.00 1.00424
335.50 1.01131
336.00 1.01793
336.50 1.02416
337.00 1.02917
337.50 1.03429
338.00 1.03958
338.50 1.04490
339.00 1.05026
339.50 1.05566
340.00 1.06110
340.50 1.06573
341.00 1.06987
341.50 1.07373
342.00 1.07593
342.50 1.07818
343.00 1.08089
343.50 1.08380
344.00 1.08676
344.50 1.08978
345.00 1.09285
345.50 1.09597
346.00 1.09786
346.50 1.09974
347.00 1.10099
347.50 1.10226
348.00 1.10392
348.50 1.10570
349.00 1.10754
349.50 1.10946
350.00 1.11144
350.50 1.11325
351.00 1.11402
351.50 1.11485
352.00 1.11576
352.50 1.11669
353.00 1.11763
353.50 1.11865
354.00 1.11957
354.50 1.12038
355.00 1.12126
355.50 1.12186
356.00 1.12200
356.50 1.12222
357.00 1.12251
357.50 1.12313
358.00 1.12355
358.50 1.12365
359.00 1.12398
359.50 1.12438
360.00 1.12486
