phi[deg] B[T]
0.00 1.05971
0.50 1.05917
1.00 1.05870
1.50 1.05829
2.00 1.05795
2.50 1.05750
3.00 1.05696
3.50 1.05649
4.00 1.05608
4.50 1.05574
5.00 1.05430
5.50 1.05273
6.00 1.05123
6.50 1.04979
7.00 1.04842
7.50 1.04711
8.00 1.04587
8.50 1.04478
9.00 1.04245
9.50 1.04014
10.00 1.03787
10.50 1.03567
11.00 1.03352
11.50 1.03143
12.00 1.02939
12.50 1.02741
13.00 1.02549
13.50 1.02314
14.00 1.01986
14.50 1.01648
15.00 1.01315
15.50 1.00988
16.00 1.00666
16.50 1.00350
17.00 1.00038
17.50 0.99732
18.00 0.99432
18.50 0.99058
19.00 0.98622
19.50 0.98191
20.00 0.97764
20.50 0.97343
21.00 0.96926
21.50 0.96513
22.00 0.96106
22.50 0.95703
23.00 0.95304
23.50 0.94779
24.00 0.94242
24.50 0.93709
25.00 0.93180
25.50 0.92655
26.00 0.92135
26.50 0.91618
27.00 0.91106
27.50 0.90609
28.00 0.90080
28.50 0.89473
29.00 0.88843
29.50 0.88216
30.00 0.87593
30.50 0.86973
31.00 0.86357
31.50 0.85718
32.00 0.85057
32.50 0.84400
33.00 0.83692
33.50 0.82919
34.00 0.82150
34.50 0.81416
35.00 0.80700
35.50 0.79987
36.00 0.79221
36.50 0.78339
37.00 0.77460
37.50 0.76682
38.00 0.75927
38.50 0.75144
39.00 0.74244
39.50 0.73346
40.00 0.72442
40.50 0.71491
41.00 0.70558
41.50 0.69626
42.00 0.68695
42.50 0.67722
43.00 0.66766
43.50 0.65809
44.00 0.64750
44.50 0.63683
45.00 0.62678
45.50 0.61624
46.00 0.60539
46.50 0.59432
47.00 0.58248
47.50 0.57086
48.00 0.55973
48.50 0.54883
49.00 0.53649
49.50 0.52377
50.00 0.51121
50.50 0.50023
51.00 0.48750
51.50 0.47291
52.00 0.45823
52.50 0.44348
53.00 0.43049
53.50 0.41829
54.00 0.40536
54.50 0.38900
55.00 0.37254
55.50 0.35623
56.00 0.33983
56.50 0.32335
57.00 0.30686
57.50 0.29155
58.00 0.27614
58.50 0.25869
59.00 0.23853
59.50 0.21826
60.00 0.20166
60.50 0.18761
61.00 0.17353
61.50 0.15941
62.00 0.14527
62.50 0.13122
63.00 0.11719
63.50 0.10485
64.00 0.09723
64.50 0.08961
65.00 0.08198
65.50 0.07436
66.00 0.06673
66.50 0.05910
67.00 0.05144
67.50 0.04648
68.00 0.04320
68.50 0.03993
69.00 0.03666
69.50 0.03340
70.00 0.03013
70.50 0.02688
71.00 0.02362
71.50 0.02037
72.00 0.01774
72.50 0.01630
73.00 0.01508
73.50 0.01386
74.00 0.01264
74.50 0.01142
75.00 0.01021
75.50 0.00899
76.00 0.00778
76.50 0.00713
77.00 0.00658
77.50 0.00602
78.00 0.00545
78.50 0.00488
79.00 0.00432
79.50 0.00380
80.00 0.00352
80.50 0.00323
81.00 0.00295
81.50 0.00267
82.00 0.00239
82.50 0.00220
83.00 0.00204
83.50 0.00188
84.00 0.00172
84.50 0.00156
85.00 0.00141
85.50 0.00131
86.00 0.00123
86.50 0.00117
87.00 0.00111
87.50 0.00106
88.00 0.00099
88.50 0.00097
89.00 0.00094
89.50 0.00092
90.00 0.00089
90.00 0.00089
90.50 0.00092
91.00 0.00094
91.50 0.00097
92.00 0.00099
92.50 0.00106
93.00 0.00111
93.50 0.00117
94.00 0.00123
94.50 0.00131
95.00 0.00141
95.50 0.00156
96.00 0.00172
96.50 0.00188
97.00 0.00204
97.50 0.00220
98.00 0.00239
98.50 0.00267
99.00 0.00295
99.50 0.00323
100.00 0.00352
100.50 0.00380
101.00 0.00432
101.50 0.00488
102.00 0.00545
102.50 0.00602
103.00 0.00658
103.50 0.00713
104.00 0.00778
104.50 0.00899
105.00 0.01021
105.50 0.01142
106.00 0.01264
106.50 0.01386
107.00 0.01508
107.50 0.01630
108.00 0.01774
108.50 0.02037
109.00 0.02362
109.50 0.02688
110.00 0.03013
110.50 0.03340
111.00 0.03666
111.50 0.03993
112.00 0.04320
112.50 0.04648
113.00 0.05144
113.50 0.05910
114.00 0.06673
114.50 0.07436
115.00 0.08198
115.50 0.08961
116.00 0.09723
116.50 0.10485
117.00 0.11719
117.50 0.13122
118.00 0.14527
118.50 0.15941
119.00 0.17353
119.50 0.18761
120.00 0.20166
120.50 0.21826
121.00 0.23853
121.50 0.25869
122.00 0.27614
122.50 0.29155
123.00 0.30686
123.50 0.32335
124.00 0.33983
124.50 0.35623
125.00 0.37254
125.50 0.38900
126.00 0.40536
126.50 0.41829
127.00 0.43049
127.50 0.44348
128.00 0.45823
128.50 0.47291
129.00 0.48750
129.50 0.50023
130.00 0.51121
130.50 0.52377
131.00 0.53649
131.50 0.54883
132.00 0.55973
132.50 0.57086
133.00 0.58248
133.50 0.59432
134.00 0.60539
134.50 0.61624
135.00 0.62678
135.50 0.63683
136.00 0.64750
136.50 0.65809
137.00 0.66766
137.50 0.67722
138.00 0.68695
138.50 0.69626
139.00 0.70558
139.50 0.71491
140.00 0.72442
140.50 0.73346
141.00 0.74244
141.50 0.75144
142.00 0.75927
142.50 0.76682
143.00 0.77460
143.50 0.78339
144.00 0.79221
144.50 0.79987
145.00 0.80700
145.50 0.81416
146.00 0.82150
146.50 0.82919
147.00 0.83692
147.50 0.84400
148.00 0.85057
148.50 0.85718
149.00 0.86357
149.50 0.86973
150.00 0.87593
150.50 0.88216
151.00 0.88843
151.50 0.89473
152.00 0.90080
152.50 0.90609
153.00 0.91106
153.50 0.91618
154.00 0.92135
154.50 0.92655
155.00 0.93180
155.50 0.93709
156.00 0.94242
156.50 0.94779
157.00 0.95304
157.50 0.95703
158.00 0.96106
158.50 0.96513
159.00 0.96926
159.50 0.97343
160.00 0.97764
160.50 0.98191
161.00 0.98622
161.50 0.99058
162.00 0.99432
162.50 0.99732
163.00 1.00038
163.50 1.00350
164.00 1.00666
164.50 1.00988
165.00 1.01315
165.50 1.01648
166.00 1.01986
166.50 1.02314
167.00 1.02549
167.50 1.02741
168.00 1.02939
168.50 1.03143
169.00 1.03352
169.50 1.03567
170.00 1.03787
170.50 1.04014
171.00 1.04245
171.50 1.04478
172.00 1.04587
172.50 1.04711
173.00 1.04842
173.50 1.04979
174.00 1.05123
174.50 1.05273
175.00 1.05430
175.50 1.05574
176.00 1.05608
176.50 1.05649
177.00 1.05696
177.50 1.05750
178.00 1.05795
178.50 1.05829
179.00 1.05870
179.50 1.05917
180.00 1.05971
180.00 1.05971
180.50 1.05917
181.00 1.05870
181.50 1.05829
182.00 1.05795
182.50 1.05750
183.00 1.05696
183.50 1.05649
184.00 1.05608
184.50 1.05574
185.00 1.05430
185.50 1.05273
186.00 1.05123
186.50 1.04979
187.00 1.04842
187.50 1.04711
188.00 1.04587
188.50 1.04478
189.00 1.04245
189.50 1.04014
190.00 1.03787
190.50 1.03567
191.00 1.03352
191.50 1.03143
192.00 1.02939
192.50 1.02741
193.00 1.02549
193.50 1.02314
194.00 1.01986
194.50 1.01648
195.00 1.01315
195.50 1.00988
196.00 1.00666
196.50 1.00350
197.00 1.00038
197.50 0.99732
198.00 0.99432
198.50 0.99058
199.00 0.98622
199.50 0.98191
200.00 0.97764
200.50 0.97343
201.00 0.96926
201.50 0.96513
202.00 0.96106
202.50 0.95703
203.00 0.95304
203.50 0.94779
204.00 0.94242
204.50 0.93709
205.00 0.93180
205.50 0.92655
206.00 0.92135
206.50 0.91618
207.00 0.91106
207.50 0.90609
208.00 0.90080
208.50 0.89473
209.00 0.88843
209.50 0.88216
210.00 0.87593
210.50 0.86973
211.00 0.86357
211.50 0.85718
212.00 0.85057
212.50 0.84400
213.00 0.83692
213.50 0.82919
214.00 0.82150
214.50 0.81416
215.00 0.80700
215.50 0.79987
216.00 0.79221
216.50 0.78339
217.00 0.77460
217.50 0.76682
218.00 0.75927
218.50 0.75144
219.00 0.74244
219.50 0.73346
220.00 0.72442
220.50 0.71491
221.00 0.70558
221.50 0.69626
222.00 0.68695
222.50 0.67722
223.00 0.66766
223.50 0.65809
224.00 0.64750
224.50 0.63683
225.00 0.62678
225.50 0.61624
226.00 0.60539
226.50 0.59432
227.00 0.58248
227.50 0.57086
228.00 0.55973
228.50 0.54883
229.00 0.53649
229.50 0.52377
230.00 0.51121
230.50 0.50023
231.00 0.48750
231.50 0.47291
232.00 0.45823
232.50 0.44348
233.00 0.43049
233.50 0.41829
234.00 0.40536
234.50 0.38900
235.00 0.37254
235.50 0.35623
236.00 0.33983
236.50 0.32335
237.00 0.30686
237.50 0.29155
238.00 0.27614
238.50 0.25869
239.00 0.23853
239.50 0.21826
240.00 0.20166
240.50 0.18761
241.00 0.17353
241.50 0.15941
242.00 0.14527
242.50 0.13122
243.00 0.11719
243.50 0.10485
244.00 0.09723
244.50 0.08961
245.00 0.08198
245.50 0.07436
246.00 0.06673
246.50 0.05910
247.00 0.05144
247.50 0.04648
248.00 0.04320
248.50 0.03993
249.00 0.03666
249.50 0.03340
250.00 0.03013
250.50 0.02688
251.00 0.02362
251.50 0.02037
252.00 0.01774
252.50 0.01630
253.00 0.01508
253.50 0.01386
254.00 0.01264
254.50 0.01142
255.00 0.01021
255.50 0.00899
256.00 0.00778
256.50 0.00713
257.00 0.00658
257.50 0.00602
258.00 0.00545
258.50 0.00488
259.00 0.00432
259.50 0.00380
260.00 0.00352
260.50 0.00323
261.00 0.00295
261.50 0.00267
262.00 0.00239
262.50 0.00220
263.00 0.00204
263.50 0.00188
264.00 0.00172
264.50 0.00156
265.00 0.00141
265.50 0.00131
266.00 0.00123
266.50 0.00117
267.00 0.00111
267.50 0.00106
268.00 0.00099
268.50 0.00097
269.00 0.00094
269.50 0.00092
270.00 0.00089
270.00 0.00089
270.50 0.00092
271.00 0.00094
271.50 0.00097
272.00 0.00099
272.50 0.00106
273.00 0.00111
273.50 0.00117
274.00 0.00123
274.50 0.00131
275.00 0.00141
275.50 0.00156
276.00 0.00172
276.50 0.00188
277.00 0.00204
277.50 0.00220
278.00 0.00239
278.50 0.00267
279.00 0.00295
279.50 0.00323
280.00 0.00352
280.50 0.00380
281.00 0.00432
281.50 0.00488
282.00 0.00545
282.50 0.00602
283.00 0.00658
283.50 0.00713
284.00 0.00778
284.50 0.00899
285.00 0.01021
285.50 0.01142
286.00 0.01264
286.50 0.01386
287.00 0.01508
287.50 0.01630
288.00 0.01774
288.50 0.02037
289.00 0.02362
289.50 0.02688
290.00 0.03013
290.50 0.03340
291.00 0.03666
291.50 0.03993
292.00 0.04320
292.50 0.04648
293.00 0.05144
293.50 0.05910
294.00 0.06673
294.50 0.07436
295.00 0.08198
295.50 0.08961
296.00 0.09723
296.50 0.10485
297.00 0.11719
297.50 0.13122
298.00 0.14527
298.50 0.15941
299.00 0.17353
299.50 0.18761
300.00 0.20166
300.50 0.21826
301.00 0.23853
301.50 0.25869
302.00 0.27614
302.50 0.29155
303.00 0.30686
303.50 0.32335
304.00 0.33983
304.50 0.35623
305.00 0.37254
305.50 0.38900
306.00 0.40536
306.50 0.41829
307.00 0.43049
307.50 0.44348
308.00 0.45823
308.50 0.47291
309.00 0.48750
309.50 0.50023
310.00 0.51121
310.50 0.52377
311.00 0.53649
311.50 0.54883
312.00 0.55973
312.50 0.57086
313.00 0.58248
313.50 0.59432
314.00 0.60539
314.50 0.61624
315.00 0.62678
315.50 0.63683
316.00 0.64750
316.50 0.65809
317.00 0.66766
317.50 0.67722
318.00 0.68695
318.50 0.69626
319.00 0.70558
319.50 0.71491
320.00 0.72442
320.50 0.73346
321.00 0.74244
321.50 0.75144
322.00 0.75927
322.50 0.76682
323.00 0.77460
323.50 0.78339
324.00 0.79221
324.50 0.79987
325.00 0.80700
325.50 0.81416
326.00 0.82150
326.50 0.82919
327.00 0.83692
327.50 0.84400
328.00 0.85057
328.50 0.85718
329.00 0.86357
329.50 0.86973
330.00 0.87593
330.50 0.88216
331.00 0.88843
331.50 0.89473
332.00 0.90080
332.50 0.90609
333.00 0.91106
333.50 0.91618
334.00 0.92135
334.50 0.92655
335.00 0.93180
335.50 0.93709
336.00 0.94242
336.50 0.94779
337.00 0.95304
337.50 0.95703
338.00 0.96106
338.50 0.96513
339.00 0.96926
339.50 0.97343
340.00 0.97764
340.50 0.98191
341.00 0.98622
341.50 0.99058
342.00 0.99432
342.50 0.99732
343.00 1.00038
343.50 1.00350
344.00 1.00666
344.50 1.00988
345.00 1.01315
345.50 1.01648
346.00 1.01986
346.50 1.02314
347.00 1.02549
347.50 1.02741
348.00 1.02939
348.50 1.03143
349.00 1.03352
349.50 1.03567
350.00 1.03787
350.50 1.04014
351.00 1.04245
351.50 1.04478
352.00 1.04587
352.50 1.04711
353.00 1.04842
353.50 1.04979
354.00 1.05123
354.50 1.05273
355.00 1.05430
355.50 1.05574
356.00 1.05608
356.50 1.05649
357.00 1.05696
357.50 1.05750
358.00 1.05795
358.50 1.05829
359.00 1.05870
359.50 1.05917
360.00 1.05971
