phi[deg] B[T]
0.00 1.45324
0.50 1.45309
1.00 1.45306
1.50 1.45313
2.00 1.45332
2.50 1.45363
3.00 1.45412
3.50 1.45472
4.00 1.45544
4.50 1.45626
5.00 1.45718
5.50 1.45835
6.00 1.45968
6.50 1.46111
7.00 1.46239
7.50 1.46303
8.00 1.46376
8.50 1.46475
9.00 1.46588
9.50 1.46709
10.00 1.46841
10.50 1.46741
11.00 1.46694
11.50 1.46731
12.00 1.46776
12.50 1.46828
13.00 1.46775
13.50 1.46594
14.00 1.46422
14.50 1.46251
15.00 1.45937
15.50 1.45631
16.00 1.45331
16.50 1.45067
17.00 1.44831
17.50 1.44602
18.00 1.44288
18.50 1.43914
19.00 1.43545
19.50 1.43182
20.00 1.42621
20.50 1.42065
21.00 1.41505
21.50 1.40941
22.00 1.40382
22.50 1.39828
23.00 1.39078
23.50 1.38035
24.00 1.36995
24.50 1.36003
25.00 1.35092
25.50 1.34184
26.00 1.33277
26.50 1.32163
27.00 1.30830
27.50 1.29499
28.00 1.28168
28.50 1.26732
29.00 1.25298
29.50 1.23866
30.00 1.22509
30.50 1.21190
31.00 1.19873
31.50 1.18533
32.00 1.16995
32.50 1.15459
33.00 1.13925
33.50 1.12235
34.00 1.10474
34.50 1.08714
35.00 1.07017
35.50 1.05396
36.00 1.03774
36.50 1.01949
37.00 1.00063
37.50 0.98117
38.00 0.96171
38.50 0.94226
39.00 0.92282
39.50 0.90384
40.00 0.88489
40.50 0.86596
41.00 0.84705
41.50 0.82816
42.00 0.80949
42.50 0.79155
43.00 0.77364
43.50 0.75622
44.00 0.73940
44.50 0.72260
45.00 0.70566
45.50 0.69013
46.00 0.67484
46.50 0.65957
47.00 0.64542
47.50 0.63240
48.00 0.61941
48.50 0.60514
49.00 0.59283
49.50 0.58082
50.00 0.56880
50.50 0.55578
51.00 0.54346
51.50 0.53108
52.00 0.51866
52.50 0.50834
53.00 0.50031
53.50 0.48904
54.00 0.47661
54.50 0.46302
55.00 0.44729
55.50 0.43146
56.00 0.41553
56.50 0.39950
57.00 0.38336
57.50 0.36751
58.00 0.35168
58.50 0.33576
59.00 0.31503
59.50 0.29416
60.00 0.27319
60.50 0.25665
61.00 0.24079
61.50 0.22487
62.00 0.20891
62.50 0.19302
63.00 0.17736
63.50 0.16165
64.00 0.14590
64.50 0.13010
65.00 0.11983
65.50 0.11014
66.00 0.10044
66.50 0.09074
67.00 0.08304
67.50 0.07556
68.00 0.06807
68.50 0.06056
69.00 0.05524
69.50 0.05093
70.00 0.04662
70.50 0.04232
71.00 0.03802
71.50 0.03417
72.00 0.03059
72.50 0.02701
73.00 0.02490
73.50 0.02301
74.00 0.02114
74.50 0.01930
75.00 0.01746
75.50 0.01563
76.00 0.01380
76.50 0.01244
77.00 0.01147
77.50 0.01050
78.00 0.00953
78.50 0.00863
79.00 0.00788
79.50 0.00713
80.00 0.00638
80.50 0.00575
81.00 0.00529
81.50 0.00483
82.00 0.00438
82.50 0.00402
83.00 0.00371
83.50 0.00339
84.00 0.00308
84.50 0.00285
85.00 0.00263
85.50 0.00245
86.00 0.00232
86.50 0.00220
87.00 0.00207
87.50 0.00195
88.00 0.00186
88.50 0.00181
89.00 0.00176
89.50 0.00170
90.00 0.00165
90.00 0.00165
90.50 0.00170
91.00 0.00176
91.50 0.00181
92.00 0.00186
92.50 0.00195
93.00 0.00207
93.50 0.00220
94.00 0.00232
94.50 0.00245
95.00 0.00263
95.50 0.00285
96.00 0.00308
96.50 0.00339
97.00 0.00371
97.50 0.00402
98.00 0.00438
98.50 0.00483
99.00 0.00529
99.50 0.00575
100.00 0.00638
100.50 0.00713
101.00 0.00788
101.50 0.00863
102.00 0.00953
102.50 0.01050
103.00 0.01147
103.50 0.01244
104.00 0.01380
104.50 0.01563
105.00 0.01746
105.50 0.01930
106.00 0.02114
106.50 0.02301
107.00 0.02490
107.50 0.02701
108.00 0.03059
108.50 0.03417
109.00 0.03802
109.50 0.04232
110.00 0.04662
110.50 0.05093
111.00 0.05524
111.50 0.06056
112.00 0.06807
112.50 0.07556
113.00 0.08304
113.50 0.09074
114.00 0.10044
114.50 0.11014
115.00 0.11983
115.50 0.13010
116.00 0.14590
116.50 0.16165
117.00 0.17736
117.50 0.19302
118.00 0.20891
118.50 0.22487
119.00 0.24079
119.50 0.25665
120.00 0.27319
120.50 0.29416
121.00 0.31503
121.50 0.33576
122.00 0.35168
122.50 0.36751
123.00 0.38336
123.50 0.39950
124.00 0.41553
124.50 0.43146
125.00 0.44729
125.50 0.46302
126.00 0.47661
126.50 0.48904
127.00 0.50031
127.50 0.50834
128.00 0.51866
128.50 0.53108
129.00 0.54346
129.50 0.55578
130.00 0.56880
130.50 0.58082
131.00 0.59283
131.50 0.60514
132.00 0.61941
132.50 0.63240
133.00 0.64542
133.50 0.65957
134.00 0.67484
134.50 0.69013
135.00 0.70566
135.50 0.72260
136.00 0.73940
136.50 0.75622
137.00 0.77364
137.50 0.79155
138.00 0.80949
138.50 0.82816
139.00 0.84705
139.50 0.86596
140.00 0.88489
140.50 0.90384
141.00 0.92282
141.50 0.94226
142.00 0.96171
142.50 0.98117
143.00 1.00063
143.50 1.01949
144.00 1.03774
144.50 1.05396
145.00 1.07017
145.50 1.08714
146.00 1.10474
146.50 1.12235
147.00 1.13925
147.50 1.15459
148.00 1.16995
148.50 1.18533
149.00 1.19873
149.50 1.21190
150.00 1.22509
150.50 1.23866
151.00 1.25298
151.50 1.26732
152.00 1.28168
152.50 1.29499
153.00 1.30830
153.50 1.32163
154.00 1.33277
154.50 1.34184
155.00 1.35092
155.50 1.36003
156.00 1.36995
156.50 1.38035
157.00 1.39078
157.50 1.39828
158.00 1.40382
158.50 1.40941
159.00 1.41505
159.50 1.42065
160.00 1.42621
160.50 1.43182
161.00 1.43545
161.50 1.43914
162.00 1.44288
162.50 1.44602
163.00 1.44831
163.50 1.45067
164.00 1.45331
164.50 1.45631
165.00 1.45937
165.50 1.46251
166.00 1.46422
166.50 1.46594
167.00 1.46775
167.50 1.46828
168.00 1.46776
168.50 1.46731
169.00 1.46694
169.50 1.46741
170.00 1.46841
170.50 1.46709
171.00 1.46588
171.50 1.46475
172.00 1.46376
172.50 1.46303
173.00 1.46239
173.50 1.46111
174.00 1.45968
174.50 1.45835
175.00 1.45718
175.50 1.45626
176.00 1.45544
176.50 1.45472
177.00 1.45412
177.50 1.45363
178.00 1.45332
178.50 1.45313
179.00 1.45306
179.50 1.45309
180.00 1.45324
180.00 1.45324
180.50 1.45309
181.00 1.45306
181.50 1.45313
182.00 1.45332
182.50 1.45363
183.00 1.45412
183.50 1.45472
184.00 1.45544
184.50 1.45626
185.00 1.45718
185.50 1.45835
186.00 1.45968
186.50 1.46111
187.00 1.46239
187.50 1.46303
188.00 1.46376
188.50 1.46475
189.00 1.46588
189.50 1.46709
190.00 1.46841
190.50 1.46741
191.00 1.46694
191.50 1.46731
192.00 1.46776
192.50 1.46828
193.00 1.46775
193.50 1.46594
194.00 1.46422
194.50 1.46251
195.00 1.45937
195.50 1.45631
196.00 1.45331
196.50 1.45067
197.00 1.44831
197.50 1.44602
198.00 1.44288
198.50 1.43914
199.00 1.43545
199.50 1.43182
200.00 1.42621
200.50 1.42065
201.00 1.41505
201.50 1.40941
202.00 1.40382
202.50 1.39828
203.00 1.39078
203.50 1.38035
204.00 1.36995
204.50 1.36003
205.00 1.35092
205.50 1.34184
206.00 1.33277
206.50 1.32163
207.00 1.30830
207.50 1.29499
208.00 1.28168
208.50 1.26732
209.00 1.25298
209.50 1.23866
210.00 1.22509
210.50 1.21190
211.00 1.19873
211.50 1.18533
212.00 1.16995
212.50 1.15459
213.00 1.13925
213.50 1.12235
214.00 1.10474
214.50 1.08714
215.00 1.07017
215.50 1.05396
216.00 1.03774
216.50 1.01949
217.00 1.00063
217.50 0.98117
218.00 0.96171
218.50 0.94226
219.00 0.92282
219.50 0.90384
220.00 0.88489
220.50 0.86596
221.00 0.84705
221.50 0.82816
222.00 0.80949
222.50 0.79155
223.00 0.77364
223.50 0.75622
224.00 0.73940
224.50 0.72260
225.00 0.70566
225.50 0.69013
226.00 0.67484
226.50 0.65957
227.00 0.64542
227.50 0.63240
228.00 0.61941
228.50 0.60514
229.00 0.59283
229.50 0.58082
230.00 0.56880
230.50 0.55578
231.00 0.54346
231.50 0.53108
232.00 0.51866
232.50 0.50834
233.00 0.50031
233.50 0.48904
234.00 0.47661
234.50 0.46302
235.00 0.44729
235.50 0.43146
236.00 0.41553
236.50 0.39950
237.00 0.38336
237.50 0.36751
238.00 0.35168
238.50 0.33576
239.00 0.31503
239.50 0.29416
240.00 0.27319
240.50 0.25665
241.00 0.24079
241.50 0.22487
242.00 0.20891
242.50 0.19302
243.00 0.17736
243.50 0.16165
244.00 0.14590
244.50 0.13010
245.00 0.11983
245.50 0.11014
246.00 0.10044
246.50 0.09074
247.00 0.08304
247.50 0.07556
248.00 0.06807
248.50 0.06056
249.00 0.05524
249.50 0.05093
250.00 0.04662
250.50 0.04232
251.00 0.03802
251.50 0.03417
252.00 0.03059
252.50 0.02701
253.00 0.02490
253.50 0.02301
254.00 0.02114
254.50 0.01930
255.00 0.01746
255.50 0.01563
256.00 0.01380
256.50 0.01244
257.00 0.01147
257.50 0.01050
258.00 0.00953
258.50 0.00863
259.00 0.00788
259.50 0.00713
260.00 0.00638
260.50 0.00575
261.00 0.00529
261.50 0.00483
262.00 0.00438
262.50 0.00402
263.00 0.00371
263.50 0.00339
264.00 0.00308
264.50 0.00285
265.00 0.00263
265.50 0.00245
266.00 0.00232
266.50 0.00220
267.00 0.00207
267.50 0.00195
268.00 0.00186
268.50 0.00181
269.00 0.00176
269.50 0.00170
270.00 0.00165
270.00 0.00165
270.50 0.00170
271.00 0.00176
271.50 0.00181
272.00 0.00186
272.50 0.00195
273.00 0.00207
273.50 0.00220
274.00 0.00232
274.50 0.00245
275.00 0.00263
275.50 0.00285
276.00 0.00308
276.50 0.00339
277.00 0.00371
277.50 0.00402
278.00 0.00438
278.50 0.00483
279.00 0.00529
279.50 0.00575
280.00 0.00638
280.50 0.00713
281.00 0.00788
281.50 0.00863
282.00 0.00953
282.50 0.01050
283.00 0.01147
283.50 0.01244
284.00 0.01380
284.50 0.01563
285.00 0.01746
285.50 0.01930
286.00 0.02114
286.50 0.02301
287.00 0.02490
287.50 0.02701
288.00 0.03059
288.50 0.03417
289.00 0.03802
289.50 0.04232
290.00 0.04662
290.50 0.05093
291.00 0.05524
291.50 0.06056
292.00 0.06807
292.50 0.07556
293.00 0.08304
293.50 0.09074
294.00 0.10044
294.50 0.11014
295.00 0.11983
295.50 0.13010
296.00 0.14590
296.50 0.16165
297.00 0.17736
297.50 0.19302
298.00 0.20891
298.50 0.22487
299.00 0.24079
299.50 0.25665
300.00 0.27319
300.50 0.29416
301.00 0.31503
301.50 0.33576
302.00 0.35168
302.50 0.36751
303.00 0.38336
303.50 0.39950
304.00 0.41553
304.50 0.43146
305.00 0.44729
305.50 0.46302
306.00 0.47661
306.50 0.48904
307.00 0.50031
307.50 0.50834
308.00 0.51866
308.50 0.53108
309.00 0.54346
309.50 0.55578
310.00 0.56880
310.50 0.58082
311.00 0.59283
311.50 0.60514
312.00 0.61941
312.50 0.63240
313.00 0.64542
313.50 0.65957
314.00 0.67484
314.50 0.69013
315.00 0.70566
315.50 0.72260
316.00 0.73940
316.50 0.75622
317.00 0.77364
317.50 0.79155
318.00 0.80949
318.50 0.82816
319.00 0.84705
319.50 0.86596
320.00 0.88489
320.50 0.90384
321.00 0.92282
321.50 0.94226
322.00 0.96171
322.50 0.98117
323.00 1.00063
323.50 1.01949
324.00 1.03774
324.50 1.05396
325.00 1.07017
325.50 1.08714
326.00 1.10474
326.50 1.12235
327.00 1.13925
327.50 1.15459
328.00 1.16995
328.50 1.18533
329.00 1.19873
329.50 1.21190
330.00 1.22509
330.50 1.23866
331.00 1.25298
331.50 1.26732
332.00 1.28168
332.50 1.29499
333.00 1.30830
333.50 1.32163
334.00 1.33277
334.50 1.34184
335.00 1.35092
335.50 1.36003
336.00 1.36995
336.50 1.38035
337.00 1.39078
337.50 1.39828
338.00 1.40382
338.50 1.40941
339.00 1.41505
339.50 1.42065
340.00 1.42621
340.50 1.43182
341.00 1.43545
341.50 1.43914
342.00 1.44288
342.50 1.44602
343.00 1.44831
343.50 1.45067
344.00 1.45331
344.50 1.45631
345.00 1.45937
345.50 1.46251
346.00 1.46422
346.50 1.46594
347.00 1.46775
347.50 1.46828
348.00 1.46776
348.50 1.46731
349.00 1.46694
349.50 1.46741
350.00 1.46841
350.50 1.46709
351.00 1.46588
351.50 1.46475
352.00 1.46376
352.50 1.46303
353.00 1.46239
353.50 1.46111
354.00 1.45968
354.50 1.45835
355.00 1.45718
355.50 1.45626
356.00 1.45544
356.50 1.45472
357.00 1.45412
357.50 1.45363
358.00 1.45332
358.50 1.45313
359.00 1.45306
359.50 1.45309
360.00 1.45324
