phi[deg] B[T]
0.00 1.32470
0.50 1.32414
1.00 1.32362
1.50 1.32315
2.00 1.32253
2.50 1.32187
3.00 1.32132
3.50 1.32083
4.00 1.32027
4.50 1.31970
5.00 1.31919
5.50 1.31872
6.00 1.31844
6.50 1.31849
7.00 1.31858
7.50 1.31873
8.00 1.31891
8.50 1.31924
9.00 1.31969
9.50 1.32026
10.00 1.32101
10.50 1.32181
11.00 1.32336
11.50 1.32418
12.00 1.32479
12.50 1.32552
13.00 1.32629
13.50 1.32709
14.00 1.32792
14.50 1.32849
15.00 1.32872
15.50 1.32909
16.00 1.32958
16.50 1.33010
17.00 1.33066
17.50 1.33125
18.00 1.33134
18.50 1.33125
19.00 1.33118
19.50 1.33114
20.00 1.33112
20.50 1.33235
21.00 1.33223
21.50 1.33028
22.00 1.32701
22.50 1.32350
23.00 1.31998
23.50 1.31644
24.00 1.31170
24.50 1.30481
25.00 1.29792
25.50 1.28871
26.00 1.27932
26.50 1.26991
27.00 1.26033
27.50 1.24976
28.00 1.23886
28.50 1.22720
29.00 1.21553
29.50 1.20385
30.00 1.19250
30.50 1.18168
31.00 1.16884
31.50 1.15554
32.00 1.14221
32.50 1.12886
33.00 1.11660
33.50 1.10518
34.00 1.08891
34.50 1.07260
35.00 1.05625
35.50 1.04047
36.00 1.02388
36.50 1.00436
37.00 0.98470
37.50 0.96564
38.00 0.94677
38.50 0.92664
39.00 0.90420
39.50 0.88299
40.00 0.86177
40.50 0.83960
41.00 0.81671
41.50 0.79372
42.00 0.77011
42.50 0.74636
43.00 0.72326
43.50 0.69975
44.00 0.67618
44.50 0.65207
45.00 0.62916
45.50 0.60663
46.00 0.58360
46.50 0.56159
47.00 0.54081
47.50 0.52176
48.00 0.50332
48.50 0.48601
49.00 0.47057
49.50 0.45522
50.00 0.44307
50.50 0.43127
51.00 0.41972
51.50 0.41081
52.00 0.40115
52.50 0.38945
53.00 0.37721
53.50 0.36753
54.00 0.35896
54.50 0.34897
55.00 0.33717
55.50 0.32481
56.00 0.31175
56.50 0.29747
57.00 0.27832
57.50 0.26048
58.00 0.24558
58.50 0.23061
59.00 0.21341
59.50 0.19520
60.00 0.17692
60.50 0.15909
61.00 0.14158
61.50 0.12939
62.00 0.11726
62.50 0.10510
63.00 0.09460
63.50 0.08446
64.00 0.07428
64.50 0.06415
65.00 0.05805
65.50 0.05193
66.00 0.04626
66.50 0.04176
67.00 0.03724
67.50 0.03272
68.00 0.02818
68.50 0.02545
69.00 0.02273
69.50 0.02031
70.00 0.01842
70.50 0.01654
71.00 0.01465
71.50 0.01281
72.00 0.01162
72.50 0.01043
73.00 0.00928
73.50 0.00843
74.00 0.00759
74.50 0.00674
75.00 0.00602
75.50 0.00554
76.00 0.00506
76.50 0.00457
77.00 0.00411
77.50 0.00369
78.00 0.00327
78.50 0.00302
79.00 0.00280
79.50 0.00259
80.00 0.00239
80.50 0.00219
81.00 0.00199
81.50 0.00181
82.00 0.00169
82.50 0.00157
83.00 0.00146
83.50 0.00138
84.00 0.00131
84.50 0.00123
85.00 0.00116
85.50 0.00111
86.00 0.00106
86.50 0.00103
87.00 0.00100
87.50 0.00097
88.00 0.00093
88.50 0.00092
89.00 0.00091
89.50 0.00090
90.00 0.00089
90.00 0.00089
90.50 0.00090
91.00 0.00091
91.50 0.00092
92.00 0.00093
92.50 0.00097
93.00 0.00100
93.50 0.00103
94.00 0.00106
94.50 0.00111
95.00 0.00116
95.50 0.00123
96.00 0.00131
96.50 0.00138
97.00 0.00146
97.50 0.00157
98.00 0.00169
98.50 0.00181
99.00 0.00199
99.50 0.00219
100.00 0.00239
100.50 0.00259
101.00 0.00280
101.50 0.00302
102.00 0.00327
102.50 0.00369
103.00 0.00411
103.50 0.00457
104.00 0.00506
104.50 0.00554
105.00 0.00602
105.50 0.00674
106.00 0.00759
106.50 0.00843
107.00 0.00928
107.50 0.01043
108.00 0.01162
108.50 0.01281
109.00 0.01465
109.50 0.01654
110.00 0.01842
110.50 0.02031
111.00 0.02273
111.50 0.02545
112.00 0.02818
112.50 0.03272
113.00 0.03724
113.50 0.04176
114.00 0.04626
114.50 0.05193
115.00 0.05805
115.50 0.06415
116.00 0.07428
116.50 0.08446
117.00 0.09460
117.50 0.10510
118.00 0.11726
118.50 0.12939
119.00 0.14158
119.50 0.15909
120.00 0.17692
120.50 0.19520
121.00 0.21341
121.50 0.23061
122.00 0.24558
122.50 0.26048
123.00 0.27832
123.50 0.29747
124.00 0.31175
124.50 0.32481
125.00 0.33717
125.50 0.34897
126.00 0.35896
126.50 0.36753
127.00 0.37721
127.50 0.38945
128.00 0.40115
128.50 0.41081
129.00 0.41972
129.50 0.43127
130.00 0.44307
130.50 0.45522
131.00 0.47057
131.50 0.48601
132.00 0.50332
132.50 0.52176
133.00 0.54081
133.50 0.56159
134.00 0.58360
134.50 0.60663
135.00 0.62916
135.50 0.65207
136.00 0.67618
136.50 0.69975
137.00 0.72326
137.50 0.74636
138.00 0.77011
138.50 0.79372
139.00 0.81671
139.50 0.83960
140.00 0.86177
140.50 0.88299
141.00 0.90420
141.50 0.92664
142.00 0.94677
142.50 0.96564
143.00 0.98470
143.50 1.00436
144.00 1.02388
144.50 1.04047
145.00 1.05625
145.50 1.07260
146.00 1.08891
146.50 1.10518
147.00 1.11660
147.50 1.12886
148.00 1.14221
148.50 1.15554
149.00 1.16884
149.50 1.18168
150.00 1.19250
150.50 1.20385
151.00 1.21553
151.50 1.22720
152.00 1.23886
152.50 1.24976
153.00 1.26033
153.50 1.26991
154.00 1.27932
154.50 1.28871
155.00 1.29792
155.50 1.30481
156.00 1.31170
156.50 1.31644
157.00 1.31998
157.50 1.32350
158.00 1.32701
158.50 1.33028
159.00 1.33223
159.50 1.33235
160.00 1.33112
160.50 1.33114
161.00 1.33118
161.50 1.33125
162.00 1.33134
162.50 1.33125
163.00 1.33066
163.50 1.33010
164.00 1.32958
164.50 1.32909
165.00 1.32872
165.50 1.32849
166.00 1.32792
166.50 1.32709
167.00 1.32629
167.50 1.32552
168.00 1.32479
168.50 1.32418
169.00 1.32336
169.50 1.32181
170.00 1.32101
170.50 1.32026
171.00 1.31969
171.50 1.31924
172.00 1.31891
172.50 1.31873
173.00 1.31858
173.50 1.31849
174.00 1.31844
174.50 1.31872
175.00 1.31919
175.50 1.31970
176.00 1.32027
176.50 1.32083
177.00 1.32132
177.50 1.32187
178.00 1.32253
178.50 1.32315
179.00 1.32362
179.50 1.32414
180.00 1.32470
180.00 1.32470
180.50 1.32414
181.00 1.32362
181.50 1.32315
182.00 1.32253
182.50 1.32187
183.00 1.32132
183.50 1.32083
184.00 1.32027
184.50 1.31970
185.00 1.31919
185.50 1.31872
186.00 1.31844
186.50 1.31849
187.00 1.31858
187.50 1.31873
188.00 1.31891
188.50 1.31924
189.00 1.31969
189.50 1.32026
190.00 1.32101
190.50 1.32181
191.00 1.32336
191.50 1.32418
192.00 1.32479
192.50 1.32552
193.00 1.32629
193.50 1.32709
194.00 1.32792
194.50 1.32849
195.00 1.32872
195.50 1.32909
196.00 1.32958
196.50 1.33010
197.00 1.33066
197.50 1.33125
198.00 1.33134
198.50 1.33125
199.00 1.33118
199.50 1.33114
200.00 1.33112
200.50 1.33235
201.00 1.33223
201.50 1.33028
202.00 1.32701
202.50 1.32350
203.00 1.31998
203.50 1.31644
204.00 1.31170
204.50 1.30481
205.00 1.29792
205.50 1.28871
206.00 1.27932
206.50 1.26991
207.00 1.26033
207.50 1.24976
208.00 1.23886
208.50 1.22720
209.00 1.21553
209.50 1.20385
210.00 1.19250
210.50 1.18168
211.00 1.16884
211.50 1.15554
212.00 1.14221
212.50 1.12886
213.00 1.11660
213.50 1.10518
214.00 1.08891
214.50 1.07260
215.00 1.05625
215.50 1.04047
216.00 1.02388
216.50 1.00436
217.00 0.98470
217.50 0.96564
218.00 0.94677
218.50 0.92664
219.00 0.90420
219.50 0.88299
220.00 0.86177
220.50 0.83960
221.00 0.81671
221.50 0.79372
222.00 0.77011
222.50 0.74636
223.00 0.72326
223.50 0.69975
224.00 0.67618
224.50 0.65207
225.00 0.62916
225.50 0.60663
226.00 0.58360
226.50 0.56159
227.00 0.54081
227.50 0.52176
228.00 0.50332
228.50 0.48601
229.00 0.47057
229.50 0.45522
230.00 0.44307
230.50 0.43127
231.00 0.41972
231.50 0.41081
232.00 0.40115
232.50 0.38945
233.00 0.37721
233.50 0.36753
234.00 0.35896
234.50 0.34897
235.00 0.33717
235.50 0.32481
236.00 0.31175
236.50 0.29747
237.00 0.27832
237.50 0.26048
238.00 0.24558
238.50 0.23061
239.00 0.21341
239.50 0.19520
240.00 0.17692
240.50 0.15909
241.00 0.14158
241.50 0.12939
242.00 0.11726
242.50 0.10510
243.00 0.09460
243.50 0.08446
244.00 0.07428
244.50 0.06415
245.00 0.05805
245.50 0.05193
246.00 0.04626
246.50 0.04176
247.00 0.03724
247.50 0.03272
248.00 0.02818
248.50 0.02545
249.00 0.02273
249.50 0.02031
250.00 0.01842
250.50 0.01654
251.00 0.01465
251.50 0.01281
252.00 0.01162
252.50 0.01043
253.00 0.00928
253.50 0.00843
254.00 0.00759
254.50 0.00674
255.00 0.00602
255.50 0.00554
256.00 0.00506
256.50 0.00457
257.00 0.00411
257.50 0.00369
258.00 0.00327
258.50 0.00302
259.00 0.00280
259.50 0.00259
260.00 0.00239
260.50 0.00219
261.00 0.00199
261.50 0.00181
262.00 0.00169
262.50 0.00157
263.00 0.00146
263.50 0.00138
264.00 0.00131
264.50 0.00123
265.00 0.00116
265.50 0.00111
266.00 0.00106
266.50 0.00103
267.00 0.00100
267.50 0.00097
268.00 0.00093
268.50 0.00092
269.00 0.00091
269.50 0.00090
270.00 0.00089
270.00 0.00089
270.50 0.00090
271.00 0.00091
271.50 0.00092
272.00 0.00093
272.50 0.00097
273.00 0.00100
273.50 0.00103
274.00 0.00106
274.50 0.00111
275.00 0.00116
275.50 0.00123
276.00 0.00131
276.50 0.00138
277.00 0.00146
277.50 0.00157
278.00 0.00169
278.50 0.00181
279.00 0.00199
279.50 0.00219
280.00 0.00239
280.50 0.00259
281.00 0.00280
281.50 0.00302
282.00 0.00327
282.50 0.00369
283.00 0.00411
283.50 0.00457
284.00 0.00506
284.50 0.00554
285.00 0.00602
285.50 0.00674
286.00 0.00759
286.50 0.00843
287.00 0.00928
287.50 0.01043
288.00 0.01162
288.50 0.01281
289.00 0.01465
289.50 0.01654
290.00 0.01842
290.50 0.02031
291.00 0.02273
291.50 0.02545
292.00 0.02818
292.50 0.03272
293.00 0.03724
293.50 0.04176
294.00 0.04626
294.50 0.05193
295.00 0.05805
295.50 0.06415
296.00 0.07428
296.50 0.08446
297.00 0.09460
297.50 0.10510
298.00 0.11726
298.50 0.12939
299.00 0.14158
299.50 0.15909
300.00 0.17692
300.50 0.19520
301.00 0.21341
301.50 0.23061
302.00 0.24558
302.50 0.26048
303.00 0.27832
303.50 0.29747
304.00 0.31175
304.50 0.32481
305.00 0.33717
305.50 0.34897
306.00 0.35896
306.50 0.36753
307.00 0.37721
307.50 0.38945
308.00 0.40115
308.50 0.41081
309.00 0.41972
309.50 0.43127
310.00 0.44307
310.50 0.45522
311.00 0.47057
311.50 0.48601
312.00 0.50332
312.50 0.52176
313.00 0.54081
313.50 0.56159
314.00 0.58360
314.50 0.60663
315.00 0.62916
315.50 0.65207
316.00 0.67618
316.50 0.69975
317.00 0.72326
317.50 0.74636
318.00 0.77011
318.50 0.79372
319.00 0.81671
319.50 0.83960
320.00 0.86177
320.50 0.88299
321.00 0.90420
321.50 0.92664
322.00 0.94677
322.50 0.96564
323.00 0.98470
323.50 1.00436
324.00 1.02388
324.50 1.04047
325.00 1.05625
325.50 1.07260
326.00 1.08891
326.50 1.10518
327.00 1.11660
327.50 1.12886
328.00 1.14221
328.50 1.15554
329.00 1.16884
329.50 1.18168
330.00 1.19250
330.50 1.20385
331.00 1.21553
331.50 1.22720
332.00 1.23886
332.50 1.24976
333.00 1.26033
333.50 1.26991
334.00 1.27932
334.50 1.28871
335.00 1.29792
335.50 1.30481
336.00 1.31170
336.50 1.31644
337.00 1.31998
337.50 1.32350
338.00 1.32701
338.50 1.33028
339.00 1.33223
339.50 1.33235
340.00 1.33112
340.50 1.33114
341.00 1.33118
341.50 1.33125
342.00 1.33134
342.50 1.33125
343.00 1.33066
343.50 1.33010
344.00 1.32958
344.50 1.32909
345.00 1.32872
345.50 1.32849
346.00 1.32792
346.50 1.32709
347.00 1.32629
347.50 1.32552
348.00 1.32479
348.50 1.32418
349.00 1.32336
349.50 1.32181
350.00 1.32101
350.50 1.32026
351.00 1.31969
351.50 1.31924
352.00 1.31891
352.50 1.31873
353.00 1.31858
353.50 1.31849
354.00 1.31844
354.50 1.31872
355.00 1.31919
355.50 1.31970
356.00 1.32027
356.50 1.32083
357.00 1.32132
357.50 1.32187
358.00 1.32253
358.50 1.32315
359.00 1.32362
359.50 1.32414
360.00 1.32470
