phi[deg] B[T]
0.00 1.42782
0.50 1.42717
1.00 1.42663
1.50 1.42619
2.00 1.42571
2.50 1.42528
3.00 1.42498
3.50 1.42479
4.00 1.42442
4.50 1.42389
5.00 1.42347
5.50 1.42316
6.00 1.42296
6.50 1.42286
7.00 1.42298
7.50 1.42302
8.00 1.42310
8.50 1.42329
9.00 1.42358
9.50 1.42397
10.00 1.42447
10.50 1.42507
11.00 1.42602
11.50 1.42688
12.00 1.42729
12.50 1.42745
13.00 1.42770
13.50 1.42805
14.00 1.42850
14.50 1.42903
15.00 1.42996
15.50 1.43098
16.00 1.43074
16.50 1.43027
17.00 1.42989
17.50 1.42959
18.00 1.42937
18.50 1.43037
19.00 1.43199
19.50 1.43320
20.00 1.43165
20.50 1.42961
21.00 1.42761
21.50 1.42565
22.00 1.42372
22.50 1.42195
23.00 1.42022
23.50 1.41530
24.00 1.40724
24.50 1.39918
25.00 1.39114
25.50 1.38310
26.00 1.37516
26.50 1.36695
27.00 1.35527
27.50 1.34343
28.00 1.33153
28.50 1.31964
29.00 1.30776
29.50 1.29590
30.00 1.28381
30.50 1.27171
31.00 1.25905
31.50 1.24347
32.00 1.22789
32.50 1.21231
33.00 1.19776
33.50 1.18321
34.00 1.16635
34.50 1.14708
35.00 1.12779
35.50 1.10954
36.00 1.09328
36.50 1.07133
37.00 1.04972
37.50 1.02856
38.00 1.00738
38.50 0.98516
39.00 0.96134
39.50 0.93751
40.00 0.91354
40.50 0.88928
41.00 0.86459
41.50 0.83977
42.00 0.81493
42.50 0.79014
43.00 0.76559
43.50 0.74106
44.00 0.71659
44.50 0.69215
45.00 0.66771
45.50 0.64469
46.00 0.62176
46.50 0.59939
47.00 0.57831
47.50 0.55727
48.00 0.53797
48.50 0.52067
49.00 0.50338
49.50 0.48656
50.00 0.47057
50.50 0.45558
51.00 0.44318
51.50 0.43077
52.00 0.42089
52.50 0.41249
53.00 0.40393
53.50 0.38989
54.00 0.37580
54.50 0.36166
55.00 0.34976
55.50 0.33919
56.00 0.32855
56.50 0.31785
57.00 0.30234
57.50 0.28658
58.00 0.27074
58.50 0.25550
59.00 0.24186
59.50 0.22811
60.00 0.20941
60.50 0.18975
61.00 0.17385
61.50 0.16093
62.00 0.14797
62.50 0.13499
63.00 0.12197
63.50 0.11009
64.00 0.09820
64.50 0.08627
65.00 0.07678
65.50 0.06985
66.00 0.06292
66.50 0.05599
67.00 0.05027
67.50 0.04491
68.00 0.03954
68.50 0.03470
69.00 0.03174
69.50 0.02879
70.00 0.02584
70.50 0.02289
71.00 0.02029
71.50 0.01773
72.00 0.01596
72.50 0.01465
73.00 0.01334
73.50 0.01207
74.00 0.01079
74.50 0.00951
75.00 0.00829
75.50 0.00763
76.00 0.00696
76.50 0.00629
77.00 0.00567
77.50 0.00516
78.00 0.00466
78.50 0.00417
79.00 0.00386
79.50 0.00355
80.00 0.00324
80.50 0.00296
81.00 0.00275
81.50 0.00253
82.00 0.00233
82.50 0.00218
83.00 0.00203
83.50 0.00188
84.00 0.00179
84.50 0.00169
85.00 0.00160
85.50 0.00152
86.00 0.00145
86.50 0.00141
87.00 0.00137
87.50 0.00133
88.00 0.00129
88.50 0.00126
89.00 0.00125
89.50 0.00123
90.00 0.00121
90.00 0.00121
90.50 0.00123
91.00 0.00125
91.50 0.00126
92.00 0.00129
92.50 0.00133
93.00 0.00137
93.50 0.00141
94.00 0.00145
94.50 0.00152
95.00 0.00160
95.50 0.00169
96.00 0.00179
96.50 0.00188
97.00 0.00203
97.50 0.00218
98.00 0.00233
98.50 0.00253
99.00 0.00275
99.50 0.00296
100.00 0.00324
100.50 0.00355
101.00 0.00386
101.50 0.00417
102.00 0.00466
102.50 0.00516
103.00 0.00567
103.50 0.00629
104.00 0.00696
104.50 0.00763
105.00 0.00829
105.50 0.00951
106.00 0.01079
106.50 0.01207
107.00 0.01334
107.50 0.01465
108.00 0.01596
108.50 0.01773
109.00 0.02029
109.50 0.02289
110.00 0.02584
110.50 0.02879
111.00 0.03174
111.50 0.03470
112.00 0.03954
112.50 0.04491
113.00 0.05027
113.50 0.05599
114.00 0.06292
114.50 0.06985
115.00 0.07678
115.50 0.08627
116.00 0.09820
116.50 0.11009
117.00 0.12197
117.50 0.13499
118.00 0.14797
118.50 0.16093
119.00 0.17385
119.50 0.18975
120.00 0.20941
120.50 0.22811
121.00 0.24186
121.50 0.25550
122.00 0.27074
122.50 0.28658
123.00 0.30234
123.50 0.31785
124.00 0.32855
124.50 0.33919
125.00 0.34976
125.50 0.36166
126.00 0.37580
126.50 0.38989
127.00 0.40393
127.50 0.41249
128.00 0.42089
128.50 0.43077
129.00 0.44318
129.50 0.45558
130.00 0.47057
130.50 0.48656
131.00 0.50338
131.50 0.52067
132.00 0.53797
132.50 0.55727
133.00 0.57831
133.50 0.59939
134.00 0.62176
134.50 0.64469
135.00 0.66771
135.50 0.69215
136.00 0.71659
136.50 0.74106
137.00 0.76559
137.50 0.79014
138.00 0.81493
138.50 0.83977
139.00 0.86459
139.50 0.88928
140.00 0.91354
140.50 0.93751
141.00 0.96134
141.50 0.98516
142.00 1.00738
142.50 1.02856
143.00 1.04972
143.50 1.07133
144.00 1.09328
144.50 1.10954
145.00 1.12779
145.50 1.14708
146.00 1.16635
146.50 1.18321
147.00 1.19776
147.50 1.21231
148.00 1.22789
148.50 1.24347
149.00 1.25905
149.50 1.27171
150.00 1.28381
150.50 1.29590
151.00 1.30776
151.50 1.31964
152.00 1.33153
152.50 1.34343
153.00 1.35527
153.50 1.36695
154.00 1.37516
154.50 1.38310
155.00 1.39114
155.50 1.39918
156.00 1.40724
156.50 1.41530
157.00 1.42022
157.50 1.42195
158.00 1.42372
158.50 1.42565
159.00 1.42761
159.50 1.42961
160.00 1.43165
160.50 1.43320
161.00 1.43199
161.50 1.43037
162.00 1.42937
162.50 1.42959
163.00 1.42989
163.50 1.43027
164.00 1.43074
164.50 1.43098
165.00 1.42996
165.50 1.42903
166.00 1.42850
166.50 1.42805
167.00 1.42770
167.50 1.42745
168.00 1.42729
168.50 1.42688
169.00 1.42602
169.50 1.42507
170.00 1.42447
170.50 1.42397
171.00 1.42358
171.50 1.42329
172.00 1.42310
172.50 1.42302
173.00 1.42298
173.50 1.42286
174.00 1.42296
174.50 1.42316
175.00 1.42347
175.50 1.42389
176.00 1.42442
176.50 1.42479
177.00 1.42498
177.50 1.42528
178.00 1.42571
178.50 1.42619
179.00 1.42663
179.50 1.42717
180.00 1.42782
180.00 1.42782
180.50 1.42717
181.00 1.42663
181.50 1.42619
182.00 1.42571
182.50 1.42528
183.00 1.42498
183.50 1.42479
184.00 1.42442
184.50 1.42389
185.00 1.42347
185.50 1.42316
186.00 1.42296
186.50 1.42286
187.00 1.42298
187.50 1.42302
188.00 1.42310
188.50 1.42329
189.00 1.42358
189.50 1.42397
190.00 1.42447
190.50 1.42507
191.00 1.42602
191.50 1.42688
192.00 1.42729
192.50 1.42745
193.00 1.42770
193.50 1.42805
194.00 1.42850
194.50 1.42903
195.00 1.42996
195.50 1.43098
196.00 1.43074
196.50 1.43027
197.00 1.42989
197.50 1.42959
198.00 1.42937
198.50 1.43037
199.00 1.43199
199.50 1.43320
200.00 1.43165
200.50 1.42961
201.00 1.42761
201.50 1.42565
202.00 1.42372
202.50 1.42195
203.00 1.42022
203.50 1.41530
204.00 1.40724
204.50 1.39918
205.00 1.39114
205.50 1.38310
206.00 1.37516
206.50 1.36695
207.00 1.35527
207.50 1.34343
208.00 1.33153
208.50 1.31964
209.00 1.30776
209.50 1.29590
210.00 1.28381
210.50 1.27171
211.00 1.25905
211.50 1.24347
212.00 1.22789
212.50 1.21231
213.00 1.19776
213.50 1.18321
214.00 1.16635
214.50 1.14708
215.00 1.12779
215.50 1.10954
216.00 1.09328
216.50 1.07133
217.00 1.04972
217.50 1.02856
218.00 1.00738
218.50 0.98516
219.00 0.96134
219.50 0.93751
220.00 0.91354
220.50 0.88928
221.00 0.86459
221.50 0.83977
222.00 0.81493
222.50 0.79014
223.00 0.76559
223.50 0.74106
224.00 0.71659
224.50 0.69215
225.00 0.66771
225.50 0.64469
226.00 0.62176
226.50 0.59939
227.00 0.57831
227.50 0.55727
228.00 0.53797
228.50 0.52067
229.00 0.50338
229.50 0.48656
230.00 0.47057
230.50 0.45558
231.00 0.44318
231.50 0.43077
232.00 0.42089
232.50 0.41249
233.00 0.40393
233.50 0.38989
234.00 0.37580
234.50 0.36166
235.00 0.34976
235.50 0.33919
236.00 0.32855
236.50 0.31785
237.00 0.30234
237.50 0.28658
238.00 0.27074
238.50 0.25550
239.00 0.24186
239.50 0.22811
240.00 0.20941
240.50 0.18975
241.00 0.17385
241.50 0.16093
242.00 0.14797
242.50 0.13499
243.00 0.12197
243.50 0.11009
244.00 0.09820
244.50 0.08627
245.00 0.07678
245.50 0.06985
246.00 0.06292
246.50 0.05599
247.00 0.05027
247.50 0.04491
248.00 0.03954
248.50 0.03470
249.00 0.03174
249.50 0.02879
250.00 0.02584
250.50 0.02289
251.00 0.02029
251.50 0.01773
252.00 0.01596
252.50 0.01465
253.00 0.01334
253.50 0.01207
254.00 0.01079
254.50 0.00951
255.00 0.00829
255.50 0.00763
256.00 0.00696
256.50 0.00629
257.00 0.00567
257.50 0.00516
258.00 0.00466
258.50 0.00417
259.00 0.00386
259.50 0.00355
260.00 0.00324
260.50 0.00296
261.00 0.00275
261.50 0.00253
262.00 0.00233
262.50 0.00218
263.00 0.00203
263.50 0.00188
264.00 0.00179
264.50 0.00169
265.00 0.00160
265.50 0.00152
266.00 0.00145
266.50 0.00141
267.00 0.00137
267.50 0.00133
268.00 0.00129
268.50 0.00126
269.00 0.00125
269.50 0.00123
270.00 0.00121
270.00 0.00121
270.50 0.00123
271.00 0.00125
271.50 0.00126
272.00 0.00129
272.50 0.00133
273.00 0.00137
273.50 0.00141
274.00 0.00145
274.50 0.00152
275.00 0.00160
275.50 0.00169
276.00 0.00179
276.50 0.00188
277.00 0.00203
277.50 0.00218
278.00 0.00233
278.50 0.00253
279.00 0.00275
279.50 0.00296
280.00 0.00324
280.50 0.00355
281.00 0.00386
281.50 0.00417
282.00 0.00466
282.50 0.00516
283.00 0.00567
283.50 0.00629
284.00 0.00696
284.50 0.00763
285.00 0.00829
285.50 0.00951
286.00 0.01079
286.50 0.01207
287.00 0.01334
287.50 0.01465
288.00 0.01596
288.50 0.01773
289.00 0.02029
289.50 0.02289
290.00 0.02584
290.50 0.02879
291.00 0.03174
291.50 0.03470
292.00 0.03954
292.50 0.04491
293.00 0.05027
293.50 0.05599
294.00 0.06292
294.50 0.06985
295.00 0.07678
295.50 0.08627
296.00 0.09820
296.50 0.11009
297.00 0.12197
297.50 0.13499
298.00 0.14797
298.50 0.16093
299.00 0.17385
299.50 0.18975
300.00 0.20941
300.50 0.22811
301.00 0.24186
301.50 0.25550
302.00 0.27074
302.50 0.28658
303.00 0.30234
303.50 0.31785
304.00 0.32855
304.50 0.33919
305.00 0.34976
305.50 0.36166
306.00 0.37580
306.50 0.38989
307.00 0.40393
307.50 0.41249
308.00 0.42089
308.50 0.43077
309.00 0.44318
309.50 0.45558
310.00 0.47057
310.50 0.48656
311.00 0.50338
311.50 0.52067
312.00 0.53797
312.50 0.55727
313.00 0.57831
313.50 0.59939
314.00 0.62176
314.50 0.64469
315.00 0.66771
315.50 0.69215
316.00 0.71659
316.50 0.74106
317.00 0.76559
317.50 0.79014
318.00 0.81493
318.50 0.83977
319.00 0.86459
319.50 0.88928
320.00 0.91354
320.50 0.93751
321.00 0.96134
321.50 0.98516
322.00 1.00738
322.50 1.02856
323.00 1.04972
323.50 1.07133
324.00 1.09328
324.50 1.10954
325.00 1.12779
325.50 1.14708
326.00 1.16635
326.50 1.18321
327.00 1.19776
327.50 1.21231
328.00 1.22789
328.50 1.24347
329.00 1.25905
329.50 1.27171
330.00 1.28381
330.50 1.29590
331.00 1.30776
331.50 1.31964
332.00 1.33153
332.50 1.34343
333.00 1.35527
333.50 1.36695
334.00 1.37516
334.50 1.38310
335.00 1.39114
335.50 1.39918
336.00 1.40724
336.50 1.41530
337.00 1.42022
337.50 1.42195
338.00 1.42372
338.50 1.42565
339.00 1.42761
339.50 1.42961
340.00 1.43165
340.50 1.43320
341.00 1.43199
341.50 1.43037
342.00 1.42937
342.50 1.42959
343.00 1.42989
343.50 1.43027
344.00 1.43074
344.50 1.43098
345.00 1.42996
345.50 1.42903
346.00 1.42850
346.50 1.42805
347.00 1.42770
347.50 1.42745
348.00 1.42729
348.50 1.42688
349.00 1.42602
349.50 1.42507
350.00 1.42447
350.50 1.42397
351.00 1.42358
351.50 1.42329
352.00 1.42310
352.50 1.42302
353.00 1.42298
353.50 1.42286
354.00 1.42296
354.50 1.42316
355.00 1.42347
355.50 1.42389
356.00 1.42442
356.50 1.42479
357.00 1.42498
357.50 1.42528
358.00 1.42571
358.50 1.42619
359.00 1.42663
359.50 1.42717
360.00 1.42782
