phi[deg] B[T]
0.00 1.35755
0.50 1.35712
1.00 1.35672
1.50 1.35636
2.00 1.35576
2.50 1.35525
3.00 1.35487
3.50 1.35453
4.00 1.35421
4.50 1.35393
5.00 1.35370
5.50 1.35351
6.00 1.35350
6.50 1.35387
7.00 1.35428
7.50 1.35473
8.00 1.35522
8.50 1.35580
9.00 1.35644
9.50 1.35722
10.00 1.35819
10.50 1.35919
11.00 1.36094
11.50 1.36154
12.00 1.36195
12.50 1.36255
13.00 1.36319
13.50 1.36386
14.00 1.36455
14.50 1.36479
15.00 1.36446
15.50 1.36437
16.00 1.36448
16.50 1.36462
17.00 1.36479
17.50 1.36500
18.00 1.36472
18.50 1.36427
19.00 1.36385
19.50 1.36345
20.00 1.36307
20.50 1.36388
21.00 1.36338
21.50 1.36113
22.00 1.35765
22.50 1.35394
23.00 1.35023
23.50 1.34651
24.00 1.34166
24.50 1.33478
25.00 1.32790
25.50 1.31874
26.00 1.30941
26.50 1.30007
27.00 1.29062
27.50 1.28047
28.00 1.26990
28.50 1.25829
29.00 1.24668
29.50 1.23505
30.00 1.22391
30.50 1.21354
31.00 1.20039
31.50 1.18659
32.00 1.17276
32.50 1.15890
33.00 1.14617
33.50 1.13421
34.00 1.11594
34.50 1.09761
35.00 1.07923
35.50 1.06184
36.00 1.04378
36.50 1.02195
37.00 0.99991
37.50 0.97846
38.00 0.95720
38.50 0.93409
39.00 0.90967
39.50 0.88660
40.00 0.86356
40.50 0.84034
41.00 0.81696
41.50 0.79277
42.00 0.76942
42.50 0.74628
43.00 0.72416
43.50 0.70215
44.00 0.68034
44.50 0.65961
45.00 0.63958
45.50 0.62144
46.00 0.60263
46.50 0.58668
47.00 0.57084
47.50 0.55760
48.00 0.54525
48.50 0.53405
49.00 0.52424
49.50 0.51450
50.00 0.50737
50.50 0.50006
51.00 0.49191
51.50 0.48605
52.00 0.47921
52.50 0.46914
53.00 0.45740
53.50 0.44858
54.00 0.44100
54.50 0.43105
55.00 0.41804
55.50 0.40468
56.00 0.39090
56.50 0.37558
57.00 0.35426
57.50 0.33413
58.00 0.31674
58.50 0.29924
59.00 0.27902
59.50 0.25755
60.00 0.23598
60.50 0.21403
61.00 0.19177
61.50 0.17646
62.00 0.16123
62.50 0.14597
63.00 0.13205
63.50 0.11842
64.00 0.10474
64.50 0.09112
65.00 0.08253
65.50 0.07394
66.00 0.06596
66.50 0.05964
67.00 0.05330
67.50 0.04694
68.00 0.04058
68.50 0.03658
69.00 0.03260
69.50 0.02907
70.00 0.02635
70.50 0.02364
71.00 0.02092
71.50 0.01827
72.00 0.01652
72.50 0.01478
73.00 0.01310
73.50 0.01187
74.00 0.01064
74.50 0.00942
75.00 0.00836
75.50 0.00766
76.00 0.00696
76.50 0.00626
77.00 0.00559
77.50 0.00498
78.00 0.00437
78.50 0.00400
79.00 0.00368
79.50 0.00337
80.00 0.00308
80.50 0.00279
81.00 0.00250
81.50 0.00225
82.00 0.00207
82.50 0.00189
83.00 0.00172
83.50 0.00161
84.00 0.00150
84.50 0.00139
85.00 0.00128
85.50 0.00120
86.00 0.00112
86.50 0.00107
87.00 0.00102
87.50 0.00098
88.00 0.00093
88.50 0.00091
89.00 0.00089
89.50 0.00087
90.00 0.00085
90.00 0.00085
90.50 0.00087
91.00 0.00089
91.50 0.00091
92.00 0.00093
92.50 0.00098
93.00 0.00102
93.50 0.00107
94.00 0.00112
94.50 0.00120
95.00 0.00128
95.50 0.00139
96.00 0.00150
96.50 0.00161
97.00 0.00172
97.50 0.00189
98.00 0.00207
98.50 0.00225
99.00 0.00250
99.50 0.00279
100.00 0.00308
100.50 0.00337
101.00 0.00368
101.50 0.00400
102.00 0.00437
102.50 0.00498
103.00 0.00559
103.50 0.00626
104.00 0.00696
104.50 0.00766
105.00 0.00836
105.50 0.00942
106.00 0.01064
106.50 0.01187
107.00 0.01310
107.50 0.01478
108.00 0.01652
108.50 0.01827
109.00 0.02092
109.50 0.02364
110.00 0.02635
110.50 0.02907
111.00 0.03260
111.50 0.03658
112.00 0.04058
112.50 0.04694
113.00 0.05330
113.50 0.05964
114.00 0.06596
114.50 0.07394
115.00 0.08253
115.50 0.09112
116.00 0.10474
116.50 0.11842
117.00 0.13205
117.50 0.14597
118.00 0.16123
118.50 0.17646
119.00 0.19177
119.50 0.21403
120.00 0.23598
120.50 0.25755
121.00 0.27902
121.50 0.29924
122.00 0.31674
122.50 0.33413
123.00 0.35426
123.50 0.37558
124.00 0.39090
124.50 0.40468
125.00 0.41804
125.50 0.43105
126.00 0.44100
126.50 0.44858
127.00 0.45740
127.50 0.46914
128.00 0.47921
128.50 0.48605
129.00 0.49191
129.50 0.50006
130.00 0.50737
130.50 0.51450
131.00 0.52424
131.50 0.53405
132.00 0.54525
132.50 0.55760
133.00 0.57084
133.50 0.58668
134.00 0.60263
134.50 0.62144
135.00 0.63958
135.50 0.65961
136.00 0.68034
136.50 0.70215
137.00 0.72416
137.50 0.74628
138.00 0.76942
138.50 0.79277
139.00 0.81696
139.50 0.84034
140.00 0.86356
140.50 0.88660
141.00 0.90967
141.50 0.93409
142.00 0.95720
142.50 0.97846
143.00 0.99991
143.50 1.02195
144.00 1.04378
144.50 1.06184
145.00 1.07923
145.50 1.09761
146.00 1.11594
146.50 1.13421
147.00 1.14617
147.50 1.15890
148.00 1.17276
148.50 1.18659
149.00 1.20039
149.50 1.21354
150.00 1.22391
150.50 1.23505
151.00 1.24668
151.50 1.25829
152.00 1.26990
152.50 1.28047
153.00 1.29062
153.50 1.30007
154.00 1.30941
154.50 1.31874
155.00 1.32790
155.50 1.33478
156.00 1.34166
156.50 1.34651
157.00 1.35023
157.50 1.35394
158.00 1.35765
158.50 1.36113
159.00 1.36338
159.50 1.36388
160.00 1.36307
160.50 1.36345
161.00 1.36385
161.50 1.36427
162.00 1.36472
162.50 1.36500
163.00 1.36479
163.50 1.36462
164.00 1.36448
164.50 1.36437
165.00 1.36446
165.50 1.36479
166.00 1.36455
166.50 1.36386
167.00 1.36319
167.50 1.36255
168.00 1.36195
168.50 1.36154
169.00 1.36094
169.50 1.35919
170.00 1.35819
170.50 1.35722
171.00 1.35644
171.50 1.35580
172.00 1.35522
172.50 1.35473
173.00 1.35428
173.50 1.35387
174.00 1.35350
174.50 1.35351
175.00 1.35370
175.50 1.35393
176.00 1.35421
176.50 1.35453
177.00 1.35487
177.50 1.35525
178.00 1.35576
178.50 1.35636
179.00 1.35672
179.50 1.35712
180.00 1.35755
180.00 1.35755
180.50 1.35712
181.00 1.35672
181.50 1.35636
182.00 1.35576
182.50 1.35525
183.00 1.35487
183.50 1.35453
184.00 1.35421
184.50 1.35393
185.00 1.35370
185.50 1.35351
186.00 1.35350
186.50 1.35387
187.00 1.35428
187.50 1.35473
188.00 1.35522
188.50 1.35580
189.00 1.35644
189.50 1.35722
190.00 1.35819
190.50 1.35919
191.00 1.36094
191.50 1.36154
192.00 1.36195
192.50 1.36255
193.00 1.36319
193.50 1.36386
194.00 1.36455
194.50 1.36479
195.00 1.36446
195.50 1.36437
196.00 1.36448
196.50 1.36462
197.00 1.36479
197.50 1.36500
198.00 1.36472
198.50 1.36427
199.00 1.36385
199.50 1.36345
200.00 1.36307
200.50 1.36388
201.00 1.36338
201.50 1.36113
202.00 1.35765
202.50 1.35394
203.00 1.35023
203.50 1.34651
204.00 1.34166
204.50 1.33478
205.00 1.32790
205.50 1.31874
206.00 1.30941
206.50 1.30007
207.00 1.29062
207.50 1.28047
208.00 1.26990
208.50 1.25829
209.00 1.24668
209.50 1.23505
210.00 1.22391
210.50 1.21354
211.00 1.20039
211.50 1.18659
212.00 1.17276
212.50 1.15890
213.00 1.14617
213.50 1.13421
214.00 1.11594
214.50 1.09761
215.00 1.07923
215.50 1.06184
216.00 1.04378
216.50 1.02195
217.00 0.99991
217.50 0.97846
218.00 0.95720
218.50 0.93409
219.00 0.90967
219.50 0.88660
220.00 0.86356
220.50 0.84034
221.00 0.81696
221.50 0.79277
222.00 0.76942
222.50 0.74628
223.00 0.72416
223.50 0.70215
224.00 0.68034
224.50 0.65961
225.00 0.63958
225.50 0.62144
226.00 0.60263
226.50 0.58668
227.00 0.57084
227.50 0.55760
228.00 0.54525
228.50 0.53405
229.00 0.52424
229.50 0.51450
230.00 0.50737
230.50 0.50006
231.00 0.49191
231.50 0.48605
232.00 0.47921
232.50 0.46914
233.00 0.45740
233.50 0.44858
234.00 0.44100
234.50 0.43105
235.00 0.41804
235.50 0.40468
236.00 0.39090
236.50 0.37558
237.00 0.35426
237.50 0.33413
238.00 0.31674
238.50 0.29924
239.00 0.27902
239.50 0.25755
240.00 0.23598
240.50 0.21403
241.00 0.19177
241.50 0.17646
242.00 0.16123
242.50 0.14597
243.00 0.13205
243.50 0.11842
244.00 0.10474
244.50 0.09112
245.00 0.08253
245.50 0.07394
246.00 0.06596
246.50 0.05964
247.00 0.05330
247.50 0.04694
248.00 0.04058
248.50 0.03658
249.00 0.03260
249.50 0.02907
250.00 0.02635
250.50 0.02364
251.00 0.02092
251.50 0.01827
252.00 0.01652
252.50 0.01478
253.00 0.01310
253.50 0.01187
254.00 0.01064
254.50 0.00942
255.00 0.00836
255.50 0.00766
256.00 0.00696
256.50 0.00626
257.00 0.00559
257.50 0.00498
258.00 0.00437
258.50 0.00400
259.00 0.00368
259.50 0.00337
260.00 0.00308
260.50 0.00279
261.00 0.00250
261.50 0.00225
262.00 0.00207
262.50 0.00189
263.00 0.00172
263.50 0.00161
264.00 0.00150
264.50 0.00139
265.00 0.00128
265.50 0.00120
266.00 0.00112
266.50 0.00107
267.00 0.00102
267.50 0.00098
268.00 0.00093
268.50 0.00091
269.00 0.00089
269.50 0.00087
270.00 0.00085
270.00 0.00085
270.50 0.00087
271.00 0.00089
271.50 0.00091
272.00 0.00093
272.50 0.00098
273.00 0.00102
273.50 0.00107
274.00 0.00112
274.50 0.00120
275.00 0.00128
275.50 0.00139
276.00 0.00150
276.50 0.00161
277.00 0.00172
277.50 0.00189
278.00 0.00207
278.50 0.00225
279.00 0.00250
279.50 0.00279
280.00 0.00308
280.50 0.00337
281.00 0.00368
281.50 0.00400
282.00 0.00437
282.50 0.00498
283.00 0.00559
283.50 0.00626
284.00 0.00696
284.50 0.00766
285.00 0.00836
285.50 0.00942
286.00 0.01064
286.50 0.01187
287.00 0.01310
287.50 0.01478
288.00 0.01652
288.50 0.01827
289.00 0.02092
289.50 0.02364
290.00 0.02635
290.50 0.02907
291.00 0.03260
291.50 0.03658
292.00 0.04058
292.50 0.04694
293.00 0.05330
293.50 0.05964
294.00 0.06596
294.50 0.07394
295.00 0.08253
295.50 0.09112
296.00 0.10474
296.50 0.11842
297.00 0.13205
297.50 0.14597
298.00 0.16123
298.50 0.17646
299.00 0.19177
299.50 0.21403
300.00 0.23598
300.50 0.25755
301.00 0.27902
301.50 0.29924
302.00 0.31674
302.50 0.33413
303.00 0.35426
303.50 0.37558
304.00 0.39090
304.50 0.40468
305.00 0.41804
305.50 0.43105
306.00 0.44100
306.50 0.44858
307.00 0.45740
307.50 0.46914
308.00 0.47921
308.50 0.48605
309.00 0.49191
309.50 0.50006
310.00 0.50737
310.50 0.51450
311.00 0.52424
311.50 0.53405
312.00 0.54525
312.50 0.55760
313.00 0.57084
313.50 0.58668
314.00 0.60263
314.50 0.62144
315.00 0.63958
315.50 0.65961
316.00 0.68034
316.50 0.70215
317.00 0.72416
317.50 0.74628
318.00 0.76942
318.50 0.79277
319.00 0.81696
319.50 0.84034
320.00 0.86356
320.50 0.88660
321.00 0.90967
321.50 0.93409
322.00 0.95720
322.50 0.97846
323.00 0.99991
323.50 1.02195
324.00 1.04378
324.50 1.06184
325.00 1.07923
325.50 1.09761
326.00 1.11594
326.50 1.13421
327.00 1.14617
327.50 1.15890
328.00 1.17276
328.50 1.18659
329.00 1.20039
329.50 1.21354
330.00 1.22391
330.50 1.23505
331.00 1.24668
331.50 1.25829
332.00 1.26990
332.50 1.28047
333.00 1.29062
333.50 1.30007
334.00 1.30941
334.50 1.31874
335.00 1.32790
335.50 1.33478
336.00 1.34166
336.50 1.34651
337.00 1.35023
337.50 1.35394
338.00 1.35765
338.50 1.36113
339.00 1.36338
339.50 1.36388
340.00 1.36307
340.50 1.36345
341.00 1.36385
341.50 1.36427
342.00 1.36472
342.50 1.36500
343.00 1.36479
343.50 1.36462
344.00 1.36448
344.50 1.36437
345.00 1.36446
345.50 1.36479
346.00 1.36455
346.50 1.36386
347.00 1.36319
347.50 1.36255
348.00 1.36195
348.50 1.36154
349.00 1.36094
349.50 1.35919
350.00 1.35819
350.50 1.35722
351.00 1.35644
351.50 1.35580
352.00 1.35522
352.50 1.35473
353.00 1.35428
353.50 1.35387
354.00 1.35350
354.50 1.35351
355.00 1.35370
355.50 1.35393
356.00 1.35421
356.50 1.35453
357.00 1.35487
357.50 1.35525
358.00 1.35576
358.50 1.35636
359.00 1.35672
359.50 1.35712
360.00 1.35755
