phi[deg] B[T]
0.00 1.12583
0.50 1.12532
1.00 1.12489
1.50 1.12494
2.00 1.12506
2.50 1.12469
3.00 1.12416
3.50 1.12371
4.00 1.12333
4.50 1.12289
5.00 1.12235
5.50 1.12189
6.00 1.12095
6.50 1.11984
7.00 1.11880
7.50 1.11785
8.00 1.11699
8.50 1.11621
9.00 1.11538
9.50 1.11340
10.00 1.11149
10.50 1.10964
11.00 1.10786
11.50 1.10615
12.00 1.10489
12.50 1.10389
13.00 1.10250
13.50 1.10060
14.00 1.09825
14.50 1.09532
15.00 1.09244
15.50 1.08962
16.00 1.08685
16.50 1.08414
17.00 1.08171
17.50 1.07974
18.00 1.07658
18.50 1.07254
19.00 1.06810
19.50 1.06371
20.00 1.05936
20.50 1.05505
21.00 1.05079
21.50 1.04672
22.00 1.04289
22.50 1.03827
23.00 1.03313
23.50 1.02685
24.00 1.02060
24.50 1.01439
25.00 1.00821
25.50 1.00206
26.00 0.99594
26.50 0.99024
27.00 0.98537
27.50 0.98081
28.00 0.97326
28.50 0.96571
29.00 0.95817
29.50 0.95062
30.00 0.94308
30.50 0.93554
31.00 0.92889
31.50 0.92530
32.00 0.91951
32.50 0.91334
33.00 0.90453
33.50 0.89417
34.00 0.88374
34.50 0.87324
35.00 0.86258
35.50 0.85179
36.00 0.84094
36.50 0.82873
37.00 0.81289
37.50 0.80007
38.00 0.78711
38.50 0.77182
39.00 0.75239
39.50 0.73282
40.00 0.71261
40.50 0.69049
41.00 0.66801
41.50 0.64539
42.00 0.62172
42.50 0.59532
43.00 0.57000
43.50 0.54440
44.00 0.51450
44.50 0.48443
45.00 0.45530
45.50 0.42749
46.00 0.39960
46.50 0.37159
47.00 0.34337
47.50 0.31497
48.00 0.28746
48.50 0.26516
49.00 0.24305
49.50 0.22090
50.00 0.19872
50.50 0.18209
51.00 0.16739
51.50 0.15226
52.00 0.13697
52.50 0.12167
53.00 0.10943
53.50 0.09915
54.00 0.08952
54.50 0.08281
55.00 0.07612
55.50 0.06943
56.00 0.06276
56.50 0.05609
57.00 0.04944
57.50 0.04318
58.00 0.03818
58.50 0.03343
59.00 0.03102
59.50 0.02862
60.00 0.02622
60.50 0.02384
61.00 0.02146
61.50 0.01908
62.00 0.01671
62.50 0.01468
63.00 0.01355
63.50 0.01241
64.00 0.01127
64.50 0.01012
65.00 0.00904
65.50 0.00806
66.00 0.00708
66.50 0.00648
67.00 0.00599
67.50 0.00550
68.00 0.00500
68.50 0.00451
69.00 0.00401
69.50 0.00352
70.00 0.00315
70.50 0.00292
71.00 0.00268
71.50 0.00245
72.00 0.00221
72.50 0.00198
73.00 0.00174
73.50 0.00154
74.00 0.00142
74.50 0.00131
75.00 0.00120
75.50 0.00110
76.00 0.00099
76.50 0.00088
77.00 0.00078
77.50 0.00072
78.00 0.00066
78.50 0.00061
79.00 0.00055
79.50 0.00050
80.00 0.00046
80.50 0.00042
81.00 0.00038
81.50 0.00035
82.00 0.00033
82.50 0.00030
83.00 0.00027
83.50 0.00025
84.00 0.00023
84.50 0.00021
85.00 0.00020
85.50 0.00019
86.00 0.00018
86.50 0.00016
87.00 0.00015
87.50 0.00014
88.00 0.00014
88.50 0.00013
89.00 0.00013
89.50 0.00012
90.00 0.00012
90.00 0.00012
90.50 0.00012
91.00 0.00013
91.50 0.00013
92.00 0.00014
92.50 0.00014
93.00 0.00015
93.50 0.00016
94.00 0.00018
94.50 0.00019
95.00 0.00020
95.50 0.00021
96.00 0.00023
96.50 0.00025
97.00 0.00027
97.50 0.00030
98.00 0.00033
98.50 0.00035
99.00 0.00038
99.50 0.00042
100.00 0.00046
100.50 0.00050
101.00 0.00055
101.50 0.00061
102.00 0.00066
102.50 0.00072
103.00 0.00078
103.50 0.00088
104.00 0.00099
104.50 0.00110
105.00 0.00120
105.50 0.00131
106.00 0.00142
106.50 0.00154
107.00 0.00174
107.50 0.00198
108.00 0.00221
108.50 0.00245
109.00 0.00268
109.50 0.00292
110.00 0.00315
110.50 0.00352
111.00 0.00401
111.50 0.00451
112.00 0.00500
112.50 0.00550
113.00 0.00599
113.50 0.00648
114.00 0.00708
114.50 0.00806
115.00 0.00904
115.50 0.01012
116.00 0.01127
116.50 0.01241
117.00 0.01355
117.50 0.01468
118.00 0.01671
118.50 0.01908
119.00 0.02146
119.50 0.02384
120.00 0.02622
120.50 0.02862
121.00 0.03102
121.50 0.03343
122.00 0.03818
122.50 0.04318
123.00 0.04944
123.50 0.05609
124.00 0.06276
124.50 0.06943
125.00 0.07612
125.50 0.08281
126.00 0.08952
126.50 0.09915
127.00 0.10943
127.50 0.12167
128.00 0.13697
128.50 0.15226
129.00 0.16739
129.50 0.18209
130.00 0.19872
130.50 0.22090
131.00 0.24305
131.50 0.26516
132.00 0.28746
132.50 0.31497
133.00 0.34337
133.50 0.37159
134.00 0.39960
134.50 0.42749
135.00 0.45530
135.50 0.48443
136.00 0.51450
136.50 0.54440
137.00 0.57000
137.50 0.59532
138.00 0.62172
138.50 0.64539
139.00 0.66801
139.50 0.69049
140.00 0.71261
140.50 0.73282
141.00 0.75239
141.50 0.77182
142.00 0.78711
142.50 0.80007
143.00 0.81289
143.50 0.82873
144.00 0.84094
144.50 0.85179
145.00 0.86258
145.50 0.87324
146.00 0.88374
146.50 0.89417
147.00 0.90453
147.50 0.91334
148.00 0.91951
148.50 0.92530
149.00 0.92889
149.50 0.93554
150.00 0.94308
150.50 0.95062
151.00 0.95817
151.50 0.96571
152.00 0.97326
152.50 0.98081
153.00 0.98537
153.50 0.99024
154.00 0.99594
154.50 1.00206
155.00 1.00821
155.50 1.01439
156.00 1.02060
156.50 1.02685
157.00 1.03313
157.50 1.03827
158.00 1.04289
158.50 1.04672
159.00 1.05079
159.50 1.05505
160.00 1.05936
160.50 1.06371
161.00 1.06810
161.50 1.07254
162.00 1.07658
162.50 1.07974
163.00 1.08171
163.50 1.08414
164.00 1.08685
164.50 1.08962
165.00 1.09244
165.50 1.09532
166.00 1.09825
166.50 1.10060
167.00 1.10250
167.50 1.10389
168.00 1.10489
168.50 1.10615
169.00 1.10786
169.50 1.10964
170.00 1.11149
170.50 1.11340
171.00 1.11538
171.50 1.11621
172.00 1.11699
172.50 1.11785
173.00 1.11880
173.50 1.11984
174.00 1.12095
174.50 1.12189
175.00 1.12235
175.50 1.12289
176.00 1.12333
176.50 1.12371
177.00 1.12416
177.50 1.12469
178.00 1.12506
178.50 1.12494
179.00 1.12489
179.50 1.12532
180.00 1.12583
180.00 1.12583
180.50 1.12532
181.00 1.12489
181.50 1.12494
182.00 1.12506
182.50 1.12469
183.00 1.12416
183.50 1.12371
184.00 1.12333
184.50 1.12289
185.00 1.12235
185.50 1.12189
186.00 1.12095
186.50 1.11984
187.00 1.11880
187.50 1.11785
188.00 1.11699
188.50 1.11621
189.00 1.11538
189.50 1.11340
190.00 1.11149
190.50 1.10964
191.00 1.10786
191.50 1.10615
192.00 1.10489
192.50 1.10389
193.00 1.10250
193.50 1.10060
194.00 1.09825
194.50 1.09532
195.00 1.09244
195.50 1.08962
196.00 1.08685
196.50 1.08414
197.00 1.08171
197.50 1.07974
198.00 1.07658
198.50 1.07254
199.00 1.06810
199.50 1.06371
200.00 1.05936
200.50 1.05505
201.00 1.05079
201.50 1.04672
202.00 1.04289
202.50 1.03827
203.00 1.03313
203.50 1.02685
204.00 1.02060
204.50 1.01439
205.00 1.00821
205.50 1.00206
206.00 0.99594
206.50 0.99024
207.00 0.98537
207.50 0.98081
208.00 0.97326
208.50 0.96571
209.00 0.95817
209.50 0.95062
210.00 0.94308
210.50 0.93554
211.00 0.92889
211.50 0.92530
212.00 0.91951
212.50 0.91334
213.00 0.90453
213.50 0.89417
214.00 0.88374
214.50 0.87324
215.00 0.86258
215.50 0.85179
216.00 0.84094
216.50 0.82873
217.00 0.81289
217.50 0.80007
218.00 0.78711
218.50 0.77182
219.00 0.75239
219.50 0.73282
220.00 0.71261
220.50 0.69049
221.00 0.66801
221.50 0.64539
222.00 0.62172
222.50 0.59532
223.00 0.57000
223.50 0.54440
224.00 0.51450
224.50 0.48443
225.00 0.45530
225.50 0.42749
226.00 0.39960
226.50 0.37159
227.00 0.34337
227.50 0.31497
228.00 0.28746
228.50 0.26516
229.00 0.24305
229.50 0.22090
230.00 0.19872
230.50 0.18209
231.00 0.16739
231.50 0.15226
232.00 0.13697
232.50 0.12167
233.00 0.10943
233.50 0.09915
234.00 0.08952
234.50 0.08281
235.00 0.07612
235.50 0.06943
236.00 0.06276
236.50 0.05609
237.00 0.04944
237.50 0.04318
238.00 0.03818
238.50 0.03343
239.00 0.03102
239.50 0.02862
240.00 0.02622
240.50 0.02384
241.00 0.02146
241.50 0.01908
242.00 0.01671
242.50 0.01468
243.00 0.01355
243.50 0.01241
244.00 0.01127
244.50 0.01012
245.00 0.00904
245.50 0.00806
246.00 0.00708
246.50 0.00648
247.00 0.00599
247.50 0.00550
248.00 0.00500
248.50 0.00451
249.00 0.00401
249.50 0.00352
250.00 0.00315
250.50 0.00292
251.00 0.00268
251.50 0.00245
252.00 0.00221
252.50 0.00198
253.00 0.00174
253.50 0.00154
254.00 0.00142
254.50 0.00131
255.00 0.00120
255.50 0.00110
256.00 0.00099
256.50 0.00088
257.00 0.00078
257.50 0.00072
258.00 0.00066
258.50 0.00061
259.00 0.00055
259.50 0.00050
260.00 0.00046
260.50 0.00042
261.00 0.00038
261.50 0.00035
262.00 0.00033
262.50 0.00030
263.00 0.00027
263.50 0.00025
264.00 0.00023
264.50 0.00021
265.00 0.00020
265.50 0.00019
266.00 0.00018
266.50 0.00016
267.00 0.00015
267.50 0.00014
268.00 0.00014
268.50 0.00013
269.00 0.00013
269.50 0.00012
270.00 0.00012
270.00 0.00012
270.50 0.00012
271.00 0.00013
271.50 0.00013
272.00 0.00014
272.50 0.00014
273.00 0.00015
273.50 0.00016
274.00 0.00018
274.50 0.00019
275.00 0.00020
275.50 0.00021
276.00 0.00023
276.50 0.00025
277.00 0.00027
277.50 0.00030
278.00 0.00033
278.50 0.00035
279.00 0.00038
279.50 0.00042
280.00 0.00046
280.50 0.00050
281.00 0.00055
281.50 0.00061
282.00 0.00066
282.50 0.00072
283.00 0.00078
283.50 0.00088
284.00 0.00099
284.50 0.00110
285.00 0.00120
285.50 0.00131
286.00 0.00142
286.50 0.00154
287.00 0.00174
287.50 0.00198
288.00 0.00221
288.50 0.00245
289.00 0.00268
289.50 0.00292
290.00 0.00315
290.50 0.00352
291.00 0.00401
291.50 0.00451
292.00 0.00500
292.50 0.00550
293.00 0.00599
293.50 0.00648
294.00 0.00708
294.50 0.00806
295.00 0.00904
295.50 0.01012
296.00 0.01127
296.50 0.01241
297.00 0.01355
297.50 0.01468
298.00 0.01671
298.50 0.01908
299.00 0.02146
299.50 0.02384
300.00 0.02622
300.50 0.02862
301.00 0.03102
301.50 0.03343
302.00 0.03818
302.50 0.04318
303.00 0.04944
303.50 0.05609
304.00 0.06276
304.50 0.06943
305.00 0.07612
305.50 0.08281
306.00 0.08952
306.50 0.09915
307.00 0.10943
307.50 0.12167
308.00 0.13697
308.50 0.15226
309.00 0.16739
309.50 0.18209
310.00 0.19872
310.50 0.22090
311.00 0.24305
311.50 0.26516
312.00 0.28746
312.50 0.31497
313.00 0.34337
313.50 0.37159
314.00 0.39960
314.50 0.42749
315.00 0.45530
315.50 0.48443
316.00 0.51450
316.50 0.54440
317.00 0.57000
317.50 0.59532
318.00 0.62172
318.50 0.64539
319.00 0.66801
319.50 0.69049
320.00 0.71261
320.50 0.73282
321.00 0.75239
321.50 0.77182
322.00 0.78711
322.50 0.80007
323.00 0.81289
323.50 0.82873
324.00 0.84094
324.50 0.85179
325.00 0.86258
325.50 0.87324
326.00 0.88374
326.50 0.89417
327.00 0.90453
327.50 0.91334
328.00 0.91951
328.50 0.92530
329.00 0.92889
329.50 0.93554
330.00 0.94308
330.50 0.95062
331.00 0.95817
331.50 0.96571
332.00 0.97326
332.50 0.98081
333.00 0.98537
333.50 0.99024
334.00 0.99594
334.50 1.00206
335.00 1.00821
335.50 1.01439
336.00 1.02060
336.50 1.02685
337.00 1.03313
337.50 1.03827
338.00 1.04289
338.50 1.04672
339.00 1.05079
339.50 1.05505
340.00 1.05936
340.50 1.06371
341.00 1.06810
341.50 1.07254
342.00 1.07658
342.50 1.07974
343.00 1.08171
343.50 1.08414
344.00 1.08685
344.50 1.08962
345.00 1.09244
345.50 1.09532
346.00 1.09825
346.50 1.10060
347.00 1.10250
347.50 1.10389
348.00 1.10489
348.50 1.10615
349.00 1.10786
349.50 1.10964
350.00 1.11149
350.50 1.11340
351.00 1.11538
351.50 1.11621
352.00 1.11699
352.50 1.11785
353.00 1.11880
353.50 1.11984
354.00 1.12095
354.50 1.12189
355.00 1.12235
355.50 1.12289
356.00 1.12333
356.50 1.12371
357.00 1.12416
357.50 1.12469
358.00 1.12506
358.50 1.12494
359.00 1.12489
359.50 1.12532
360.00 1.12583
