phi[deg] B[T]
0.00 1.14638
0.50 1.14599
1.00 1.14564
1.50 1.14533
2.00 1.14507
2.50 1.14485
3.00 1.14453
3.50 1.14409
4.00 1.14368
4.50 1.14330
5.00 1.14297
5.50 1.14267
6.00 1.14250
6.50 1.14246
7.00 1.14245
7.50 1.14249
8.00 1.14206
8.50 1.14149
9.00 1.14101
9.50 1.14070
10.00 1.14042
10.50 1.14089
11.00 1.14145
11.50 1.14204
12.00 1.14282
12.50 1.14418
13.00 1.14555
13.50 1.14695
14.00 1.14836
14.50 1.14980
15.00 1.15066
15.50 1.15131
16.00 1.15221
16.50 1.15345
17.00 1.15513
17.50 1.15688
18.00 1.15864
18.50 1.16040
19.00 1.16217
19.50 1.16394
20.00 1.16431
20.50 1.16463
21.00 1.16493
21.50 1.16522
22.00 1.16550
22.50 1.16578
23.00 1.16551
23.50 1.16452
24.00 1.16242
24.50 1.16005
25.00 1.15768
25.50 1.15529
26.00 1.15224
26.50 1.14730
27.00 1.14232
27.50 1.13732
28.00 1.13229
28.50 1.12725
29.00 1.12140
29.50 1.11377
30.00 1.10605
30.50 1.09825
31.00 1.09036
31.50 1.08115
32.00 1.07045
32.50 1.05944
33.00 1.04676
33.50 1.03400
34.00 1.02114
34.50 1.00534
35.00 0.98669
35.50 0.96795
36.00 0.94914
36.50 0.93025
37.00 0.91128
37.50 0.89246
38.00 0.86981
38.50 0.84672
39.00 0.82521
39.50 0.80357
40.00 0.78181
40.50 0.75993
41.00 0.73793
41.50 0.71581
42.00 0.68756
42.50 0.65906
43.00 0.63044
43.50 0.60172
44.00 0.57288
44.50 0.54394
45.00 0.51721
45.50 0.48786
46.00 0.46445
46.50 0.44099
47.00 0.41748
47.50 0.39392
48.00 0.37032
48.50 0.34871
49.00 0.32988
49.50 0.31100
50.00 0.29207
50.50 0.27311
51.00 0.25411
51.50 0.23507
52.00 0.21600
52.50 0.20272
53.00 0.19130
53.50 0.17987
54.00 0.16843
54.50 0.15697
55.00 0.14551
55.50 0.13405
56.00 0.12348
56.50 0.11622
57.00 0.10895
57.50 0.10169
58.00 0.09449
58.50 0.08892
59.00 0.08335
59.50 0.07777
60.00 0.07219
60.50 0.06661
61.00 0.06222
61.50 0.05795
62.00 0.05369
62.50 0.04943
63.00 0.04601
63.50 0.04354
64.00 0.04106
64.50 0.03859
65.00 0.03611
65.50 0.03363
66.00 0.03115
66.50 0.02870
67.00 0.02677
67.50 0.02485
68.00 0.02292
68.50 0.02127
69.00 0.02010
69.50 0.01894
70.00 0.01777
70.50 0.01660
71.00 0.01543
71.50 0.01426
72.00 0.01309
72.50 0.01221
73.00 0.01143
73.50 0.01064
74.00 0.00986
74.50 0.00927
75.00 0.00874
75.50 0.00820
76.00 0.00767
76.50 0.00713
77.00 0.00660
77.50 0.00606
78.00 0.00572
78.50 0.00540
79.00 0.00508
79.50 0.00476
80.00 0.00444
80.50 0.00417
81.00 0.00391
81.50 0.00366
82.00 0.00340
82.50 0.00321
83.00 0.00309
83.50 0.00296
84.00 0.00283
84.50 0.00271
85.00 0.00258
85.50 0.00246
86.00 0.00234
86.50 0.00222
87.00 0.00217
87.50 0.00212
88.00 0.00207
88.50 0.00202
89.00 0.00198
89.50 0.00193
90.00 0.00188
90.00 0.00188
90.50 0.00193
91.00 0.00198
91.50 0.00202
92.00 0.00207
92.50 0.00212
93.00 0.00217
93.50 0.00222
94.00 0.00234
94.50 0.00246
95.00 0.00258
95.50 0.00271
96.00 0.00283
96.50 0.00296
97.00 0.00309
97.50 0.00321
98.00 0.00340
98.50 0.00366
99.00 0.00391
99.50 0.00417
100.00 0.00444
100.50 0.00476
101.00 0.00508
101.50 0.00540
102.00 0.00572
102.50 0.00606
103.00 0.00660
103.50 0.00713
104.00 0.00767
104.50 0.00820
105.00 0.00874
105.50 0.00927
106.00 0.00986
106.50 0.01064
107.00 0.01143
107.50 0.01221
108.00 0.01309
108.50 0.01426
109.00 0.01543
109.50 0.01660
110.00 0.01777
110.50 0.01894
111.00 0.02010
111.50 0.02127
112.00 0.02292
112.50 0.02485
113.00 0.02677
113.50 0.02870
114.00 0.03115
114.50 0.03363
115.00 0.03611
115.50 0.03859
116.00 0.04106
116.50 0.04354
117.00 0.04601
117.50 0.04943
118.00 0.05369
118.50 0.05795
119.00 0.06222
119.50 0.06661
120.00 0.07219
120.50 0.07777
121.00 0.08335
121.50 0.08892
122.00 0.09449
122.50 0.10169
123.00 0.10895
123.50 0.11622
124.00 0.12348
124.50 0.13405
125.00 0.14551
125.50 0.15697
126.00 0.16843
126.50 0.17987
127.00 0.19130
127.50 0.20272
128.00 0.21600
128.50 0.23507
129.00 0.25411
129.50 0.27311
130.00 0.29207
130.50 0.31100
131.00 0.32988
131.50 0.34871
132.00 0.37032
132.50 0.39392
133.00 0.41748
133.50 0.44099
134.00 0.46445
134.50 0.48786
135.00 0.51721
135.50 0.54394
136.00 0.57288
136.50 0.60172
137.00 0.63044
137.50 0.65906
138.00 0.68756
138.50 0.71581
139.00 0.73793
139.50 0.75993
140.00 0.78181
140.50 0.80357
141.00 0.82521
141.50 0.84672
142.00 0.86981
142.50 0.89246
143.00 0.91128
143.50 0.93025
144.00 0.94914
144.50 0.96795
145.00 0.98669
145.50 1.00534
146.00 1.02114
146.50 1.03400
147.00 1.04676
147.50 1.05944
148.00 1.07045
148.50 1.08115
149.00 1.09036
149.50 1.09825
150.00 1.10605
150.50 1.11377
151.00 1.12140
151.50 1.12725
152.00 1.13229
152.50 1.13732
153.00 1.14232
153.50 1.14730
154.00 1.15224
154.50 1.15529
155.00 1.15768
155.50 1.16005
156.00 1.16242
156.50 1.16452
157.00 1.16551
157.50 1.16578
158.00 1.16550
158.50 1.16522
159.00 1.16493
159.50 1.16463
160.00 1.16431
160.50 1.16394
161.00 1.16217
161.50 1.16040
162.00 1.15864
162.50 1.15688
163.00 1.15513
163.50 1.15345
164.00 1.15221
164.50 1.15131
165.00 1.15066
165.50 1.14980
166.00 1.14836
166.50 1.14695
167.00 1.14555
167.50 1.14418
168.00 1.14282
168.50 1.14204
169.00 1.14145
169.50 1.14089
170.00 1.14042
170.50 1.14070
171.00 1.14101
171.50 1.14149
172.00 1.14206
172.50 1.14249
173.00 1.14245
173.50 1.14246
174.00 1.14250
174.50 1.14267
175.00 1.14297
175.50 1.14330
176.00 1.14368
176.50 1.14409
177.00 1.14453
177.50 1.14485
178.00 1.14507
178.50 1.14533
179.00 1.14564
179.50 1.14599
180.00 1.14638
180.00 1.14638
180.50 1.14599
181.00 1.14564
181.50 1.14533
182.00 1.14507
182.50 1.14485
183.00 1.14453
183.50 1.14409
184.00 1.14368
184.50 1.14330
185.00 1.14297
185.50 1.14267
186.00 1.14250
186.50 1.14246
187.00 1.14245
187.50 1.14249
188.00 1.14206
188.50 1.14149
189.00 1.14101
189.50 1.14070
190.00 1.14042
190.50 1.14089
191.00 1.14145
191.50 1.14204
192.00 1.14282
192.50 1.14418
193.00 1.14555
193.50 1.14695
194.00 1.14836
194.50 1.14980
195.00 1.15066
195.50 1.15131
196.00 1.15221
196.50 1.15345
197.00 1.15513
197.50 1.15688
198.00 1.15864
198.50 1.16040
199.00 1.16217
199.50 1.16394
200.00 1.16431
200.50 1.16463
201.00 1.16493
201.50 1.16522
202.00 1.16550
202.50 1.16578
203.00 1.16551
203.50 1.16452
204.00 1.16242
204.50 1.16005
205.00 1.15768
205.50 1.15529
206.00 1.15224
206.50 1.14730
207.00 1.14232
207.50 1.13732
208.00 1.13229
208.50 1.12725
209.00 1.12140
209.50 1.11377
210.00 1.10605
210.50 1.09825
211.00 1.09036
211.50 1.08115
212.00 1.07045
212.50 1.05944
213.00 1.04676
213.50 1.03400
214.00 1.02114
214.50 1.00534
215.00 0.98669
215.50 0.96795
216.00 0.94914
216.50 0.93025
217.00 0.91128
217.50 0.89246
218.00 0.86981
218.50 0.84672
219.00 0.82521
219.50 0.80357
220.00 0.78181
220.50 0.75993
221.00 0.73793
221.50 0.71581
222.00 0.68756
222.50 0.65906
223.00 0.63044
223.50 0.60172
224.00 0.57288
224.50 0.54394
225.00 0.51721
225.50 0.48786
226.00 0.46445
226.50 0.44099
227.00 0.41748
227.50 0.39392
228.00 0.37032
228.50 0.34871
229.00 0.32988
229.50 0.31100
230.00 0.29207
230.50 0.27311
231.00 0.25411
231.50 0.23507
232.00 0.21600
232.50 0.20272
233.00 0.19130
233.50 0.17987
234.00 0.16843
234.50 0.15697
235.00 0.14551
235.50 0.13405
236.00 0.12348
236.50 0.11622
237.00 0.10895
237.50 0.10169
238.00 0.09449
238.50 0.08892
239.00 0.08335
239.50 0.07777
240.00 0.07219
240.50 0.06661
241.00 0.06222
241.50 0.05795
242.00 0.05369
242.50 0.04943
243.00 0.04601
243.50 0.04354
244.00 0.04106
244.50 0.03859
245.00 0.03611
245.50 0.03363
246.00 0.03115
246.50 0.02870
247.00 0.02677
247.50 0.02485
248.00 0.02292
248.50 0.02127
249.00 0.02010
249.50 0.01894
250.00 0.01777
250.50 0.01660
251.00 0.01543
251.50 0.01426
252.00 0.01309
252.50 0.01221
253.00 0.01143
253.50 0.01064
254.00 0.00986
254.50 0.00927
255.00 0.00874
255.50 0.00820
256.00 0.00767
256.50 0.00713
257.00 0.00660
257.50 0.00606
258.00 0.00572
258.50 0.00540
259.00 0.00508
259.50 0.00476
260.00 0.00444
260.50 0.00417
261.00 0.00391
261.50 0.00366
262.00 0.00340
262.50 0.00321
263.00 0.00309
263.50 0.00296
264.00 0.00283
264.50 0.00271
265.00 0.00258
265.50 0.00246
266.00 0.00234
266.50 0.00222
267.00 0.00217
267.50 0.00212
268.00 0.00207
268.50 0.00202
269.00 0.00198
269.50 0.00193
270.00 0.00188
270.00 0.00188
270.50 0.00193
271.00 0.00198
271.50 0.00202
272.00 0.00207
272.50 0.00212
273.00 0.00217
273.50 0.00222
274.00 0.00234
274.50 0.00246
275.00 0.00258
275.50 0.00271
276.00 0.00283
276.50 0.00296
277.00 0.00309
277.50 0.00321
278.00 0.00340
278.50 0.00366
279.00 0.00391
279.50 0.00417
280.00 0.00444
280.50 0.00476
281.00 0.00508
281.50 0.00540
282.00 0.00572
282.50 0.00606
283.00 0.00660
283.50 0.00713
284.00 0.00767
284.50 0.00820
285.00 0.00874
285.50 0.00927
286.00 0.00986
286.50 0.01064
287.00 0.01143
287.50 0.01221
288.00 0.01309
288.50 0.01426
289.00 0.01543
289.50 0.01660
290.00 0.01777
290.50 0.01894
291.00 0.02010
291.50 0.02127
292.00 0.02292
292.50 0.02485
293.00 0.02677
293.50 0.02870
294.00 0.03115
294.50 0.03363
295.00 0.03611
295.50 0.03859
296.00 0.04106
296.50 0.04354
297.00 0.04601
297.50 0.04943
298.00 0.05369
298.50 0.05795
299.00 0.06222
299.50 0.06661
300.00 0.07219
300.50 0.07777
301.00 0.08335
301.50 0.08892
302.00 0.09449
302.50 0.10169
303.00 0.10895
303.50 0.11622
304.00 0.12348
304.50 0.13405
305.00 0.14551
305.50 0.15697
306.00 0.16843
306.50 0.17987
307.00 0.19130
307.50 0.20272
308.00 0.21600
308.50 0.23507
309.00 0.25411
309.50 0.27311
310.00 0.29207
310.50 0.31100
311.00 0.32988
311.50 0.34871
312.00 0.37032
312.50 0.39392
313.00 0.41748
313.50 0.44099
314.00 0.46445
314.50 0.48786
315.00 0.51721
315.50 0.54394
316.00 0.57288
316.50 0.60172
317.00 0.63044
317.50 0.65906
318.00 0.68756
318.50 0.71581
319.00 0.73793
319.50 0.75993
320.00 0.78181
320.50 0.80357
321.00 0.82521
321.50 0.84672
322.00 0.86981
322.50 0.89246
323.00 0.91128
323.50 0.93025
324.00 0.94914
324.50 0.96795
325.00 0.98669
325.50 1.00534
326.00 1.02114
326.50 1.03400
327.00 1.04676
327.50 1.05944
328.00 1.07045
328.50 1.08115
329.00 1.09036
329.50 1.09825
330.00 1.10605
330.50 1.11377
331.00 1.12140
331.50 1.12725
332.00 1.13229
332.50 1.13732
333.00 1.14232
333.50 1.14730
334.00 1.15224
334.50 1.15529
335.00 1.15768
335.50 1.16005
336.00 1.16242
336.50 1.16452
337.00 1.16551
337.50 1.16578
338.00 1.16550
338.50 1.16522
339.00 1.16493
339.50 1.16463
340.00 1.16431
340.50 1.16394
341.00 1.16217
341.50 1.16040
342.00 1.15864
342.50 1.15688
343.00 1.15513
343.50 1.15345
344.00 1.15221
344.50 1.15131
345.00 1.15066
345.50 1.14980
346.00 1.14836
346.50 1.14695
347.00 1.14555
347.50 1.14418
348.00 1.14282
348.50 1.14204
349.00 1.14145
349.50 1.14089
350.00 1.14042
350.50 1.14070
351.00 1.14101
351.50 1.14149
352.00 1.14206
352.50 1.14249
353.00 1.14245
353.50 1.14246
354.00 1.14250
354.50 1.14267
355.00 1.14297
355.50 1.14330
356.00 1.14368
356.50 1.14409
357.00 1.14453
357.50 1.14485
358.00 1.14507
358.50 1.14533
359.00 1.14564
359.50 1.14599
360.00 1.14638
