phi[deg] B[T]
0.00 1.55923
0.50 1.55829
1.00 1.55746
1.50 1.55674
2.00 1.55568
2.50 1.55481
3.00 1.55407
3.50 1.55298
4.00 1.55164
4.50 1.55128
5.00 1.55113
5.50 1.55127
6.00 1.55175
6.50 1.55235
7.00 1.55299
7.50 1.55375
8.00 1.55517
8.50 1.55741
9.00 1.55977
9.50 1.56137
10.00 1.56216
10.50 1.56306
11.00 1.56465
11.50 1.56636
12.00 1.56787
12.50 1.56703
13.00 1.56628
13.50 1.56556
14.00 1.56447
14.50 1.56335
15.00 1.56188
15.50 1.56047
16.00 1.55902
16.50 1.55766
17.00 1.55651
17.50 1.55560
18.00 1.55480
18.50 1.55409
19.00 1.55288
19.50 1.54974
20.00 1.54536
20.50 1.54383
21.00 1.54233
21.50 1.54088
22.00 1.53577
22.50 1.52634
23.00 1.51693
23.50 1.50859
24.00 1.50184
24.50 1.48566
25.00 1.46785
25.50 1.45261
26.00 1.43740
26.50 1.42224
27.00 1.40460
27.50 1.38570
28.00 1.36695
28.50 1.34964
29.00 1.33240
29.50 1.31572
30.00 1.29929
30.50 1.28293
31.00 1.26648
31.50 1.24958
32.00 1.23158
32.50 1.21568
33.00 1.20016
33.50 1.18469
34.00 1.16745
34.50 1.14882
35.00 1.13051
35.50 1.11269
36.00 1.09377
36.50 1.07340
37.00 1.05306
37.50 1.03217
38.00 1.01235
38.50 0.99264
39.00 0.97297
39.50 0.95317
40.00 0.93499
40.50 0.91672
41.00 0.89841
41.50 0.88040
42.00 0.86395
42.50 0.84718
43.00 0.83094
43.50 0.81543
44.00 0.79963
44.50 0.78400
45.00 0.76905
45.50 0.75428
46.00 0.73906
46.50 0.72386
47.00 0.70904
47.50 0.69405
48.00 0.67860
48.50 0.66405
49.00 0.64883
49.50 0.63242
50.00 0.61644
50.50 0.60237
51.00 0.58825
51.50 0.57136
52.00 0.55368
52.50 0.53595
53.00 0.52030
53.50 0.50611
54.00 0.49130
54.50 0.47186
55.00 0.45211
55.50 0.43223
56.00 0.41243
56.50 0.39361
57.00 0.37465
57.50 0.35255
58.00 0.32954
58.50 0.30639
59.00 0.28050
59.50 0.25299
60.00 0.22550
60.50 0.20598
61.00 0.18638
61.50 0.16670
62.00 0.14350
62.50 0.12025
63.00 0.10529
63.50 0.09044
64.00 0.07899
64.50 0.06759
65.00 0.05793
65.50 0.05081
66.00 0.04367
66.50 0.03651
67.00 0.03069
67.50 0.02724
68.00 0.02377
68.50 0.02025
69.00 0.01674
69.50 0.01474
70.00 0.01292
70.50 0.01105
71.00 0.00918
71.50 0.00791
72.00 0.00693
72.50 0.00595
73.00 0.00496
73.50 0.00428
74.00 0.00375
74.50 0.00326
75.00 0.00277
75.50 0.00234
76.00 0.00207
76.50 0.00179
77.00 0.00156
77.50 0.00136
78.00 0.00117
78.50 0.00105
79.00 0.00093
79.50 0.00080
80.00 0.00072
80.50 0.00064
81.00 0.00058
81.50 0.00053
82.00 0.00047
82.50 0.00042
83.00 0.00039
83.50 0.00036
84.00 0.00032
84.50 0.00029
85.00 0.00026
85.50 0.00023
86.00 0.00020
86.50 0.00018
87.00 0.00015
87.50 0.00012
88.00 0.00010
88.50 0.00007
89.00 0.00007
89.50 0.00006
90.00 0.00005
90.00 0.00005
90.50 0.00006
91.00 0.00007
91.50 0.00007
92.00 0.00010
92.50 0.00012
93.00 0.00015
93.50 0.00018
94.00 0.00020
94.50 0.00023
95.00 0.00026
95.50 0.00029
96.00 0.00032
96.50 0.00036
97.00 0.00039
97.50 0.00042
98.00 0.00047
98.50 0.00053
99.00 0.00058
99.50 0.00064
100.00 0.00072
100.50 0.00080
101.00 0.00093
101.50 0.00105
102.00 0.00117
102.50 0.00136
103.00 0.00156
103.50 0.00179
104.00 0.00207
104.50 0.00234
105.00 0.00277
105.50 0.00326
106.00 0.00375
106.50 0.00428
107.00 0.00496
107.50 0.00595
108.00 0.00693
108.50 0.00791
109.00 0.00918
109.50 0.01105
110.00 0.01292
110.50 0.01474
111.00 0.01674
111.50 0.02025
112.00 0.02377
112.50 0.02724
113.00 0.03069
113.50 0.03651
114.00 0.04367
114.50 0.05081
115.00 0.05793
115.50 0.06759
116.00 0.07899
116.50 0.09044
117.00 0.10529
117.50 0.12025
118.00 0.14350
118.50 0.16670
119.00 0.18638
119.50 0.20598
120.00 0.22550
120.50 0.25299
121.00 0.28050
121.50 0.30639
122.00 0.32954
122.50 0.35255
123.00 0.37465
123.50 0.39361
124.00 0.41243
124.50 0.43223
125.00 0.45211
125.50 0.47186
126.00 0.49130
126.50 0.50611
127.00 0.52030
127.50 0.53595
128.00 0.55368
128.50 0.57136
129.00 0.58825
129.50 0.60237
130.00 0.61644
130.50 0.63242
131.00 0.64883
131.50 0.66405
132.00 0.67860
132.50 0.69405
133.00 0.70904
133.50 0.72386
134.00 0.73906
134.50 0.75428
135.00 0.76905
135.50 0.78400
136.00 0.79963
136.50 0.81543
137.00 0.83094
137.50 0.84718
138.00 0.86395
138.50 0.88040
139.00 0.89841
139.50 0.91672
140.00 0.93499
140.50 0.95317
141.00 0.97297
141.50 0.99264
142.00 1.01235
142.50 1.03217
143.00 1.05306
143.50 1.07340
144.00 1.09377
144.50 1.11269
145.00 1.13051
145.50 1.14882
146.00 1.16745
146.50 1.18469
147.00 1.20016
147.50 1.21568
148.00 1.23158
148.50 1.24958
149.00 1.26648
149.50 1.28293
150.00 1.29929
150.50 1.31572
151.00 1.33240
151.50 1.34964
152.00 1.36695
152.50 1.38570
153.00 1.40460
153.50 1.42224
154.00 1.43740
154.50 1.45261
155.00 1.46785
155.50 1.48566
156.00 1.50184
156.50 1.50859
157.00 1.51693
157.50 1.52634
158.00 1.53577
158.50 1.54088
159.00 1.54233
159.50 1.54383
160.00 1.54536
160.50 1.54974
161.00 1.55288
161.50 1.55409
162.00 1.55480
162.50 1.55560
163.00 1.55651
163.50 1.55766
164.00 1.55902
164.50 1.56047
165.00 1.56188
165.50 1.56335
166.00 1.56447
166.50 1.56556
167.00 1.56628
167.50 1.56703
168.00 1.56787
168.50 1.56636
169.00 1.56465
169.50 1.56306
170.00 1.56216
170.50 1.56137
171.00 1.55977
171.50 1.55741
172.00 1.55517
172.50 1.55375
173.00 1.55299
173.50 1.55235
174.00 1.55175
174.50 1.55127
175.00 1.55113
175.50 1.55128
176.00 1.55164
176.50 1.55298
177.00 1.55407
177.50 1.55481
178.00 1.55568
178.50 1.55674
179.00 1.55746
179.50 1.55829
180.00 1.55923
180.00 1.55923
180.50 1.55829
181.00 1.55746
181.50 1.55674
182.00 1.55568
182.50 1.55481
183.00 1.55407
183.50 1.55298
184.00 1.55164
184.50 1.55128
185.00 1.55113
185.50 1.55127
186.00 1.55175
186.50 1.55235
187.00 1.55299
187.50 1.55375
188.00 1.55517
188.50 1.55741
189.00 1.55977
189.50 1.56137
190.00 1.56216
190.50 1.56306
191.00 1.56465
191.50 1.56636
192.00 1.56787
192.50 1.56703
193.00 1.56628
193.50 1.56556
194.00 1.56447
194.50 1.56335
195.00 1.56188
195.50 1.56047
196.00 1.55902
196.50 1.55766
197.00 1.55651
197.50 1.55560
198.00 1.55480
198.50 1.55409
199.00 1.55288
199.50 1.54974
200.00 1.54536
200.50 1.54383
201.00 1.54233
201.50 1.54088
202.00 1.53577
202.50 1.52634
203.00 1.51693
203.50 1.50859
204.00 1.50184
204.50 1.48566
205.00 1.46785
205.50 1.45261
206.00 1.43740
206.50 1.42224
207.00 1.40460
207.50 1.38570
208.00 1.36695
208.50 1.34964
209.00 1.33240
209.50 1.31572
210.00 1.29929
210.50 1.28293
211.00 1.26648
211.50 1.24958
212.00 1.23158
212.50 1.21568
213.00 1.20016
213.50 1.18469
214.00 1.16745
214.50 1.14882
215.00 1.13051
215.50 1.11269
216.00 1.09377
216.50 1.07340
217.00 1.05306
217.50 1.03217
218.00 1.01235
218.50 0.99264
219.00 0.97297
219.50 0.95317
220.00 0.93499
220.50 0.91672
221.00 0.89841
221.50 0.88040
222.00 0.86395
222.50 0.84718
223.00 0.83094
223.50 0.81543
224.00 0.79963
224.50 0.78400
225.00 0.76905
225.50 0.75428
226.00 0.73906
226.50 0.72386
227.00 0.70904
227.50 0.69405
228.00 0.67860
228.50 0.66405
229.00 0.64883
229.50 0.63242
230.00 0.61644
230.50 0.60237
231.00 0.58825
231.50 0.57136
232.00 0.55368
232.50 0.53595
233.00 0.52030
233.50 0.50611
234.00 0.49130
234.50 0.47186
235.00 0.45211
235.50 0.43223
236.00 0.41243
236.50 0.39361
237.00 0.37465
237.50 0.35255
238.00 0.32954
238.50 0.30639
239.00 0.28050
239.50 0.25299
240.00 0.22550
240.50 0.20598
241.00 0.18638
241.50 0.16670
242.00 0.14350
242.50 0.12025
243.00 0.10529
243.50 0.09044
244.00 0.07899
244.50 0.06759
245.00 0.05793
245.50 0.05081
246.00 0.04367
246.50 0.03651
247.00 0.03069
247.50 0.02724
248.00 0.02377
248.50 0.02025
249.00 0.01674
249.50 0.01474
250.00 0.01292
250.50 0.01105
251.00 0.00918
251.50 0.00791
252.00 0.00693
252.50 0.00595
253.00 0.00496
253.50 0.00428
254.00 0.00375
254.50 0.00326
255.00 0.00277
255.50 0.00234
256.00 0.00207
256.50 0.00179
257.00 0.00156
257.50 0.00136
258.00 0.00117
258.50 0.00105
259.00 0.00093
259.50 0.00080
260.00 0.00072
260.50 0.00064
261.00 0.00058
261.50 0.00053
262.00 0.00047
262.50 0.00042
263.00 0.00039
263.50 0.00036
264.00 0.00032
264.50 0.00029
265.00 0.00026
265.50 0.00023
266.00 0.00020
266.50 0.00018
267.00 0.00015
267.50 0.00012
268.00 0.00010
268.50 0.00007
269.00 0.00007
269.50 0.00006
270.00 0.00005
270.00 0.00005
270.50 0.00006
271.00 0.00007
271.50 0.00007
272.00 0.00010
272.50 0.00012
273.00 0.00015
273.50 0.00018
274.00 0.00020
274.50 0.00023
275.00 0.00026
275.50 0.00029
276.00 0.00032
276.50 0.00036
277.00 0.00039
277.50 0.00042
278.00 0.00047
278.50 0.00053
279.00 0.00058
279.50 0.00064
280.00 0.00072
280.50 0.00080
281.00 0.00093
281.50 0.00105
282.00 0.00117
282.50 0.00136
283.00 0.00156
283.50 0.00179
284.00 0.00207
284.50 0.00234
285.00 0.00277
285.50 0.00326
286.00 0.00375
286.50 0.00428
287.00 0.00496
287.50 0.00595
288.00 0.00693
288.50 0.00791
289.00 0.00918
289.50 0.01105
290.00 0.01292
290.50 0.01474
291.00 0.01674
291.50 0.02025
292.00 0.02377
292.50 0.02724
293.00 0.03069
293.50 0.03651
294.00 0.04367
294.50 0.05081
295.00 0.05793
295.50 0.06759
296.00 0.07899
296.50 0.09044
297.00 0.10529
297.50 0.12025
298.00 0.14350
298.50 0.16670
299.00 0.18638
299.50 0.20598
300.00 0.22550
300.50 0.25299
301.00 0.28050
301.50 0.30639
302.00 0.32954
302.50 0.35255
303.00 0.37465
303.50 0.39361
304.00 0.41243
304.50 0.43223
305.00 0.45211
305.50 0.47186
306.00 0.49130
306.50 0.50611
307.00 0.52030
307.50 0.53595
308.00 0.55368
308.50 0.57136
309.00 0.58825
309.50 0.60237
310.00 0.61644
310.50 0.63242
311.00 0.64883
311.50 0.66405
312.00 0.67860
312.50 0.69405
313.00 0.70904
313.50 0.72386
314.00 0.73906
314.50 0.75428
315.00 0.76905
315.50 0.78400
316.00 0.79963
316.50 0.81543
317.00 0.83094
317.50 0.84718
318.00 0.86395
318.50 0.88040
319.00 0.89841
319.50 0.91672
320.00 0.93499
320.50 0.95317
321.00 0.97297
321.50 0.99264
322.00 1.01235
322.50 1.03217
323.00 1.05306
323.50 1.07340
324.00 1.09377
324.50 1.11269
325.00 1.13051
325.50 1.14882
326.00 1.16745
326.50 1.18469
327.00 1.20016
327.50 1.21568
328.00 1.23158
328.50 1.24958
329.00 1.26648
329.50 1.28293
330.00 1.29929
330.50 1.31572
331.00 1.33240
331.50 1.34964
332.00 1.36695
332.50 1.38570
333.00 1.40460
333.50 1.42224
334.00 1.43740
334.50 1.45261
335.00 1.46785
335.50 1.48566
336.00 1.50184
336.50 1.50859
337.00 1.51693
337.50 1.52634
338.00 1.53577
338.50 1.54088
339.00 1.54233
339.50 1.54383
340.00 1.54536
340.50 1.54974
341.00 1.55288
341.50 1.55409
342.00 1.55480
342.50 1.55560
343.00 1.55651
343.50 1.55766
344.00 1.55902
344.50 1.56047
345.00 1.56188
345.50 1.56335
346.00 1.56447
346.50 1.56556
347.00 1.56628
347.50 1.56703
348.00 1.56787
348.50 1.56636
349.00 1.56465
349.50 1.56306
350.00 1.56216
350.50 1.56137
351.00 1.55977
351.50 1.55741
352.00 1.55517
352.50 1.55375
353.00 1.55299
353.50 1.55235
354.00 1.55175
354.50 1.55127
355.00 1.55113
355.50 1.55128
356.00 1.55164
356.50 1.55298
357.00 1.55407
357.50 1.55481
358.00 1.55568
358.50 1.55674
359.00 1.55746
359.50 1.55829
360.00 1.55923
