phi[deg] B[T]
0.00 1.69100
0.50 1.69061
1.00 1.69035
1.50 1.69021
2.00 1.69020
2.50 1.69032
3.00 1.69056
3.50 1.69092
4.00 1.69141
4.50 1.69203
5.00 1.69272
5.50 1.69344
6.00 1.69428
6.50 1.69514
7.00 1.69581
7.50 1.69714
8.00 1.69858
8.50 1.70015
9.00 1.70034
9.50 1.69961
10.00 1.69899
10.50 1.70025
11.00 1.70166
11.50 1.70317
12.00 1.70264
12.50 1.70103
13.00 1.69950
13.50 1.69701
14.00 1.69459
14.50 1.69226
15.00 1.69011
15.50 1.68806
16.00 1.68610
16.50 1.68302
17.00 1.67933
17.50 1.67571
18.00 1.67197
18.50 1.66630
19.00 1.66069
19.50 1.65632
20.00 1.65215
20.50 1.64804
21.00 1.64158
21.50 1.63483
22.00 1.62815
22.50 1.61948
23.00 1.60943
23.50 1.59941
24.00 1.58913
24.50 1.57872
25.00 1.56835
25.50 1.55673
26.00 1.54113
26.50 1.52555
27.00 1.50999
27.50 1.49447
28.00 1.47955
28.50 1.46491
29.00 1.44890
29.50 1.43231
30.00 1.41578
30.50 1.39979
31.00 1.38431
31.50 1.36797
32.00 1.35127
32.50 1.33471
33.00 1.31821
33.50 1.30175
34.00 1.28247
34.50 1.26218
35.00 1.24414
35.50 1.22610
36.00 1.20807
36.50 1.19006
37.00 1.17137
37.50 1.15062
38.00 1.12988
38.50 1.10915
39.00 1.08845
39.50 1.06695
40.00 1.04655
40.50 1.02652
41.00 1.00650
41.50 0.98650
42.00 0.96550
42.50 0.94628
43.00 0.92707
43.50 0.90774
44.00 0.88800
44.50 0.86826
45.00 0.84839
45.50 0.82878
46.00 0.80952
46.50 0.79022
47.00 0.77101
47.50 0.75188
48.00 0.73254
48.50 0.71191
49.00 0.69252
49.50 0.67340
50.00 0.65423
50.50 0.63437
51.00 0.61347
51.50 0.59485
52.00 0.57616
52.50 0.55740
53.00 0.53988
53.50 0.52246
54.00 0.50321
54.50 0.48388
55.00 0.46447
55.50 0.44454
56.00 0.42448
56.50 0.40460
57.00 0.38474
57.50 0.36482
58.00 0.34481
58.50 0.32474
59.00 0.30512
59.50 0.28674
60.00 0.26794
60.50 0.24875
61.00 0.22951
61.50 0.21023
62.00 0.19090
62.50 0.17473
63.00 0.16151
63.50 0.14819
64.00 0.13486
64.50 0.12152
65.00 0.10917
65.50 0.10040
66.00 0.09162
66.50 0.08282
67.00 0.07472
67.50 0.06785
68.00 0.06099
68.50 0.05413
69.00 0.04916
69.50 0.04486
70.00 0.04056
70.50 0.03625
71.00 0.03240
71.50 0.02947
72.00 0.02654
72.50 0.02361
73.00 0.02153
73.50 0.01957
74.00 0.01761
74.50 0.01565
75.00 0.01427
75.50 0.01304
76.00 0.01181
76.50 0.01059
77.00 0.00955
77.50 0.00855
78.00 0.00755
78.50 0.00691
79.00 0.00640
79.50 0.00588
80.00 0.00536
80.50 0.00482
81.00 0.00427
81.50 0.00372
82.00 0.00346
82.50 0.00320
83.00 0.00294
83.50 0.00268
84.00 0.00242
84.50 0.00216
85.00 0.00200
85.50 0.00188
86.00 0.00177
86.50 0.00165
87.00 0.00153
87.50 0.00141
88.00 0.00137
88.50 0.00133
89.00 0.00128
89.50 0.00123
90.00 0.00119
90.00 0.00119
90.50 0.00123
91.00 0.00128
91.50 0.00133
92.00 0.00137
92.50 0.00141
93.00 0.00153
93.50 0.00165
94.00 0.00177
94.50 0.00188
95.00 0.00200
95.50 0.00216
96.00 0.00242
96.50 0.00268
97.00 0.00294
97.50 0.00320
98.00 0.00346
98.50 0.00372
99.00 0.00427
99.50 0.00482
100.00 0.00536
100.50 0.00588
101.00 0.00640
101.50 0.00691
102.00 0.00755
102.50 0.00855
103.00 0.00955
103.50 0.01059
104.00 0.01181
104.50 0.01304
105.00 0.01427
105.50 0.01565
106.00 0.01761
106.50 0.01957
107.00 0.02153
107.50 0.02361
108.00 0.02654
108.50 0.02947
109.00 0.03240
109.50 0.03625
110.00 0.04056
110.50 0.04486
111.00 0.04916
111.50 0.05413
112.00 0.06099
112.50 0.06785
113.00 0.07472
113.50 0.08282
114.00 0.09162
114.50 0.10040
115.00 0.10917
115.50 0.12152
116.00 0.13486
116.50 0.14819
117.00 0.16151
117.50 0.17473
118.00 0.19090
118.50 0.21023
119.00 0.22951
119.50 0.24875
120.00 0.26794
120.50 0.28674
121.00 0.30512
121.50 0.32474
122.00 0.34481
122.50 0.36482
123.00 0.38474
123.50 0.40460
124.00 0.42448
124.50 0.44454
125.00 0.46447
125.50 0.48388
126.00 0.50321
126.50 0.52246
127.00 0.53988
127.50 0.55740
128.00 0.57616
128.50 0.59485
129.00 0.61347
129.50 0.63437
130.00 0.65423
130.50 0.67340
131.00 0.69252
131.50 0.71191
132.00 0.73254
132.50 0.75188
133.00 0.77101
133.50 0.79022
134.00 0.80952
134.50 0.82878
135.00 0.84839
135.50 0.86826
136.00 0.88800
136.50 0.90774
137.00 0.92707
137.50 0.94628
138.00 0.96550
138.50 0.98650
139.00 1.00650
139.50 1.02652
140.00 1.04655
140.50 1.06695
141.00 1.08845
141.50 1.10915
142.00 1.12988
142.50 1.15062
143.00 1.17137
143.50 1.19006
144.00 1.20807
144.50 1.22610
145.00 1.24414
145.50 1.26218
146.00 1.28247
146.50 1.30175
147.00 1.31821
147.50 1.33471
148.00 1.35127
148.50 1.36797
149.00 1.38431
149.50 1.39979
150.00 1.41578
150.50 1.43231
151.00 1.44890
151.50 1.46491
152.00 1.47955
152.50 1.49447
153.00 1.50999
153.50 1.52555
154.00 1.54113
154.50 1.55673
155.00 1.56835
155.50 1.57872
156.00 1.58913
156.50 1.59941
157.00 1.60943
157.50 1.61948
158.00 1.62815
158.50 1.63483
159.00 1.64158
159.50 1.64804
160.00 1.65215
160.50 1.65632
161.00 1.66069
161.50 1.66630
162.00 1.67197
162.50 1.67571
163.00 1.67933
163.50 1.68302
164.00 1.68610
164.50 1.68806
165.00 1.69011
165.50 1.69226
166.00 1.69459
166.50 1.69701
167.00 1.69950
167.50 1.70103
168.00 1.70264
168.50 1.70317
169.00 1.70166
169.50 1.70025
170.00 1.69899
170.50 1.69961
171.00 1.70034
171.50 1.70015
172.00 1.69858
172.50 1.69714
173.00 1.69581
173.50 1.69514
174.00 1.69428
174.50 1.69344
175.00 1.69272
175.50 1.69203
176.00 1.69141
176.50 1.69092
177.00 1.69056
177.50 1.69032
178.00 1.69020
178.50 1.69021
179.00 1.69035
179.50 1.69061
180.00 1.69100
180.00 1.69100
180.50 1.69061
181.00 1.69035
181.50 1.69021
182.00 1.69020
182.50 1.69032
183.00 1.69056
183.50 1.69092
184.00 1.69141
184.50 1.69203
185.00 1.69272
185.50 1.69344
186.00 1.69428
186.50 1.69514
187.00 1.69581
187.50 1.69714
188.00 1.69858
188.50 1.70015
189.00 1.70034
189.50 1.69961
190.00 1.69899
190.50 1.70025
191.00 1.70166
191.50 1.70317
192.00 1.70264
192.50 1.70103
193.00 1.69950
193.50 1.69701
194.00 1.69459
194.50 1.69226
195.00 1.69011
195.50 1.68806
196.00 1.68610
196.50 1.68302
197.00 1.67933
197.50 1.67571
198.00 1.67197
198.50 1.66630
199.00 1.66069
199.50 1.65632
200.00 1.65215
200.50 1.64804
201.00 1.64158
201.50 1.63483
202.00 1.62815
202.50 1.61948
203.00 1.60943
203.50 1.59941
204.00 1.58913
204.50 1.57872
205.00 1.56835
205.50 1.55673
206.00 1.54113
206.50 1.52555
207.00 1.50999
207.50 1.49447
208.00 1.47955
208.50 1.46491
209.00 1.44890
209.50 1.43231
210.00 1.41578
210.50 1.39979
211.00 1.38431
211.50 1.36797
212.00 1.35127
212.50 1.33471
213.00 1.31821
213.50 1.30175
214.00 1.28247
214.50 1.26218
215.00 1.24414
215.50 1.22610
216.00 1.20807
216.50 1.19006
217.00 1.17137
217.50 1.15062
218.00 1.12988
218.50 1.10915
219.00 1.08845
219.50 1.06695
220.00 1.04655
220.50 1.02652
221.00 1.00650
221.50 0.98650
222.00 0.96550
222.50 0.94628
223.00 0.92707
223.50 0.90774
224.00 0.88800
224.50 0.86826
225.00 0.84839
225.50 0.82878
226.00 0.80952
226.50 0.79022
227.00 0.77101
227.50 0.75188
228.00 0.73254
228.50 0.71191
229.00 0.69252
229.50 0.67340
230.00 0.65423
230.50 0.63437
231.00 0.61347
231.50 0.59485
232.00 0.57616
232.50 0.55740
233.00 0.53988
233.50 0.52246
234.00 0.50321
234.50 0.48388
235.00 0.46447
235.50 0.44454
236.00 0.42448
236.50 0.40460
237.00 0.38474
237.50 0.36482
238.00 0.34481
238.50 0.32474
239.00 0.30512
239.50 0.28674
240.00 0.26794
240.50 0.24875
241.00 0.22951
241.50 0.21023
242.00 0.19090
242.50 0.17473
243.00 0.16151
243.50 0.14819
244.00 0.13486
244.50 0.12152
245.00 0.10917
245.50 0.10040
246.00 0.09162
246.50 0.08282
247.00 0.07472
247.50 0.06785
248.00 0.06099
248.50 0.05413
249.00 0.04916
249.50 0.04486
250.00 0.04056
250.50 0.03625
251.00 0.03240
251.50 0.02947
252.00 0.02654
252.50 0.02361
253.00 0.02153
253.50 0.01957
254.00 0.01761
254.50 0.01565
255.00 0.01427
255.50 0.01304
256.00 0.01181
256.50 0.01059
257.00 0.00955
257.50 0.00855
258.00 0.00755
258.50 0.00691
259.00 0.00640
259.50 0.00588
260.00 0.00536
260.50 0.00482
261.00 0.00427
261.50 0.00372
262.00 0.00346
262.50 0.00320
263.00 0.00294
263.50 0.00268
264.00 0.00242
264.50 0.00216
265.00 0.00200
265.50 0.00188
266.00 0.00177
266.50 0.00165
267.00 0.00153
267.50 0.00141
268.00 0.00137
268.50 0.00133
269.00 0.00128
269.50 0.00123
270.00 0.00119
270.00 0.00119
270.50 0.00123
271.00 0.00128
271.50 0.00133
272.00 0.00137
272.50 0.00141
273.00 0.00153
273.50 0.00165
274.00 0.00177
274.50 0.00188
275.00 0.00200
275.50 0.00216
276.00 0.00242
276.50 0.00268
277.00 0.00294
277.50 0.00320
278.00 0.00346
278.50 0.00372
279.00 0.00427
279.50 0.00482
280.00 0.00536
280.50 0.00588
281.00 0.00640
281.50 0.00691
282.00 0.00755
282.50 0.00855
283.00 0.00955
283.50 0.01059
284.00 0.01181
284.50 0.01304
285.00 0.01427
285.50 0.01565
286.00 0.01761
286.50 0.01957
287.00 0.02153
287.50 0.02361
288.00 0.02654
288.50 0.02947
289.00 0.03240
289.50 0.03625
290.00 0.04056
290.50 0.04486
291.00 0.04916
291.50 0.05413
292.00 0.06099
292.50 0.06785
293.00 0.07472
293.50 0.08282
294.00 0.09162
294.50 0.10040
295.00 0.10917
295.50 0.12152
296.00 0.13486
296.50 0.14819
297.00 0.16151
297.50 0.17473
298.00 0.19090
298.50 0.21023
299.00 0.22951
299.50 0.24875
300.00 0.26794
300.50 0.28674
301.00 0.30512
301.50 0.32474
302.00 0.34481
302.50 0.36482
303.00 0.38474
303.50 0.40460
304.00 0.42448
304.50 0.44454
305.00 0.46447
305.50 0.48388
306.00 0.50321
306.50 0.52246
307.00 0.53988
307.50 0.55740
308.00 0.57616
308.50 0.59485
309.00 0.61347
309.50 0.63437
310.00 0.65423
310.50 0.67340
311.00 0.69252
311.50 0.71191
312.00 0.73254
312.50 0.75188
313.00 0.77101
313.50 0.79022
314.00 0.80952
314.50 0.82878
315.00 0.84839
315.50 0.86826
316.00 0.88800
316.50 0.90774
317.00 0.92707
317.50 0.94628
318.00 0.96550
318.50 0.98650
319.00 1.00650
319.50 1.02652
320.00 1.04655
320.50 1.06695
321.00 1.08845
321.50 1.10915
322.00 1.12988
322.50 1.15062
323.00 1.17137
323.50 1.19006
324.00 1.20807
324.50 1.22610
325.00 1.24414
325.50 1.26218
326.00 1.28247
326.50 1.30175
327.00 1.31821
327.50 1.33471
328.00 1.35127
328.50 1.36797
329.00 1.38431
329.50 1.39979
330.00 1.41578
330.50 1.43231
331.00 1.44890
331.50 1.46491
332.00 1.47955
332.50 1.49447
333.00 1.50999
333.50 1.52555
334.00 1.54113
334.50 1.55673
335.00 1.56835
335.50 1.57872
336.00 1.58913
336.50 1.59941
337.00 1.60943
337.50 1.61948
338.00 1.62815
338.50 1.63483
339.00 1.64158
339.50 1.64804
340.00 1.65215
340.50 1.65632
341.00 1.66069
341.50 1.66630
342.00 1.67197
342.50 1.67571
343.00 1.67933
343.50 1.68302
344.00 1.68610
344.50 1.68806
345.00 1.69011
345.50 1.69226
346.00 1.69459
346.50 1.69701
347.00 1.69950
347.50 1.70103
348.00 1.70264
348.50 1.70317
349.00 1.70166
349.50 1.70025
350.00 1.69899
350.50 1.69961
351.00 1.70034
351.50 1.70015
352.00 1.69858
352.50 1.69714
353.00 1.69581
353.50 1.69514
354.00 1.69428
354.50 1.69344
355.00 1.69272
355.50 1.69203
356.00 1.69141
356.50 1.69092
357.00 1.69056
357.50 1.69032
358.00 1.69020
358.50 1.69021
359.00 1.69035
359.50 1.69061
360.00 1.69100
