phi[deg] B[T]
0.00 1.55558
0.50 1.55473
1.00 1.55447
1.50 1.55428
2.00 1.55377
2.50 1.55262
3.00 1.55125
3.50 1.54954
4.00 1.54780
4.50 1.54608
5.00 1.54440
5.50 1.54074
6.00 1.53688
6.50 1.53380
7.00 1.53080
7.50 1.52651
8.00 1.52097
8.50 1.51546
9.00 1.51000
9.50 1.50417
10.00 1.49680
10.50 1.48941
11.00 1.48201
11.50 1.47459
12.00 1.46852
12.50 1.46028
13.00 1.44781
13.50 1.43530
14.00 1.42275
14.50 1.40991
15.00 1.39468
15.50 1.38051
16.00 1.36624
16.50 1.35189
17.00 1.33936
17.50 1.32131
18.00 1.29994
18.50 1.27845
19.00 1.25739
19.50 1.23422
20.00 1.20945
20.50 1.18639
21.00 1.16315
21.50 1.14022
22.00 1.11773
22.50 1.08624
23.00 1.05454
23.50 1.02261
24.00 0.99272
24.50 0.95843
25.00 0.92442
25.50 0.89226
26.00 0.85983
26.50 0.82644
27.00 0.79031
27.50 0.75061
28.00 0.71065
28.50 0.67043
29.00 0.63187
29.50 0.59569
30.00 0.55974
30.50 0.52361
31.00 0.48495
31.50 0.44619
32.00 0.41204
32.50 0.37776
33.00 0.34681
33.50 0.31634
34.00 0.29193
34.50 0.26878
35.00 0.24515
35.50 0.22110
36.00 0.19702
36.50 0.17532
37.00 0.16092
37.50 0.14795
38.00 0.13499
38.50 0.12202
39.00 0.10906
39.50 0.09609
40.00 0.08456
40.50 0.07780
41.00 0.07103
41.50 0.06410
42.00 0.05716
42.50 0.05022
43.00 0.04549
43.50 0.04142
44.00 0.03744
44.50 0.03345
45.00 0.02947
45.50 0.02705
46.00 0.02463
46.50 0.02222
47.00 0.01980
47.50 0.01740
48.00 0.01597
48.50 0.01461
49.00 0.01325
49.50 0.01188
50.00 0.01052
50.50 0.00943
51.00 0.00847
51.50 0.00768
52.00 0.00706
52.50 0.00644
53.00 0.00582
53.50 0.00520
54.00 0.00461
54.50 0.00405
55.00 0.00375
55.50 0.00348
56.00 0.00320
56.50 0.00293
57.00 0.00265
57.50 0.00238
58.00 0.00210
58.50 0.00188
59.00 0.00175
59.50 0.00163
60.00 0.00150
60.50 0.00138
61.00 0.00125
61.50 0.00113
62.00 0.00100
62.50 0.00091
63.00 0.00086
63.50 0.00081
64.00 0.00076
64.50 0.00071
65.00 0.00066
65.50 0.00061
66.00 0.00056
66.50 0.00053
67.00 0.00051
67.50 0.00048
68.00 0.00046
68.50 0.00044
69.00 0.00041
69.50 0.00039
70.00 0.00038
70.50 0.00036
71.00 0.00035
71.50 0.00034
72.00 0.00033
72.50 0.00032
73.00 0.00030
73.50 0.00029
74.00 0.00028
74.50 0.00027
75.00 0.00026
75.50 0.00025
76.00 0.00024
76.50 0.00024
77.00 0.00023
77.50 0.00022
78.00 0.00021
78.50 0.00020
79.00 0.00019
79.50 0.00018
80.00 0.00017
80.50 0.00016
81.00 0.00016
81.50 0.00015
82.00 0.00014
82.50 0.00013
83.00 0.00012
83.50 0.00011
84.00 0.00010
84.50 0.00010
85.00 0.00009
85.50 0.00008
86.00 0.00007
86.50 0.00006
87.00 0.00005
87.50 0.00004
88.00 0.00004
88.50 0.00004
89.00 0.00003
89.50 0.00003
90.00 0.00002
90.00 0.00002
90.50 0.00003
91.00 0.00003
91.50 0.00004
92.00 0.00004
92.50 0.00004
93.00 0.00005
93.50 0.00006
94.00 0.00007
94.50 0.00008
95.00 0.00009
95.50 0.00010
96.00 0.00010
96.50 0.00011
97.00 0.00012
97.50 0.00013
98.00 0.00014
98.50 0.00015
99.00 0.00016
99.50 0.00016
100.00 0.00017
100.50 0.00018
101.00 0.00019
101.50 0.00020
102.00 0.00021
102.50 0.00022
103.00 0.00023
103.50 0.00024
104.00 0.00024
104.50 0.00025
105.00 0.00026
105.50 0.00027
106.00 0.00028
106.50 0.00029
107.00 0.00030
107.50 0.00032
108.00 0.00033
108.50 0.00034
109.00 0.00035
109.50 0.00036
110.00 0.00038
110.50 0.00039
111.00 0.00041
111.50 0.00044
112.00 0.00046
112.50 0.00048
113.00 0.00051
113.50 0.00053
114.00 0.00056
114.50 0.00061
115.00 0.00066
115.50 0.00071
116.00 0.00076
116.50 0.00081
117.00 0.00086
117.50 0.00091
118.00 0.00100
118.50 0.00113
119.00 0.00125
119.50 0.00138
120.00 0.00150
120.50 0.00163
121.00 0.00175
121.50 0.00188
122.00 0.00210
122.50 0.00238
123.00 0.00265
123.50 0.00293
124.00 0.00320
124.50 0.00348
125.00 0.00375
125.50 0.00405
126.00 0.00461
126.50 0.00520
127.00 0.00582
127.50 0.00644
128.00 0.00706
128.50 0.00768
129.00 0.00847
129.50 0.00943
130.00 0.01052
130.50 0.01188
131.00 0.01325
131.50 0.01461
132.00 0.01597
132.50 0.01740
133.00 0.01980
133.50 0.02222
134.00 0.02463
134.50 0.02705
135.00 0.02947
135.50 0.03345
136.00 0.03744
136.50 0.04142
137.00 0.04549
137.50 0.05022
138.00 0.05716
138.50 0.06410
139.00 0.07103
139.50 0.07780
140.00 0.08456
140.50 0.09609
141.00 0.10906
141.50 0.12202
142.00 0.13499
142.50 0.14795
143.00 0.16092
143.50 0.17532
144.00 0.19702
144.50 0.22110
145.00 0.24515
145.50 0.26878
146.00 0.29193
146.50 0.31634
147.00 0.34681
147.50 0.37776
148.00 0.41204
148.50 0.44619
149.00 0.48495
149.50 0.52361
150.00 0.55974
150.50 0.59569
151.00 0.63187
151.50 0.67043
152.00 0.71065
152.50 0.75061
153.00 0.79031
153.50 0.82644
154.00 0.85983
154.50 0.89226
155.00 0.92442
155.50 0.95843
156.00 0.99272
156.50 1.02261
157.00 1.05454
157.50 1.08624
158.00 1.11773
158.50 1.14022
159.00 1.16315
159.50 1.18639
160.00 1.20945
160.50 1.23422
161.00 1.25739
161.50 1.27845
162.00 1.29994
162.50 1.32131
163.00 1.33936
163.50 1.35189
164.00 1.36624
164.50 1.38051
165.00 1.39468
165.50 1.40991
166.00 1.42275
166.50 1.43530
167.00 1.44781
167.50 1.46028
168.00 1.46852
168.50 1.47459
169.00 1.48201
169.50 1.48941
170.00 1.49680
170.50 1.50417
171.00 1.51000
171.50 1.51546
172.00 1.52097
172.50 1.52651
173.00 1.53080
173.50 1.53380
174.00 1.53688
174.50 1.54074
175.00 1.54440
175.50 1.54608
176.00 1.54780
176.50 1.54954
177.00 1.55125
177.50 1.55262
178.00 1.55377
178.50 1.55428
179.00 1.55447
179.50 1.55473
180.00 1.55558
180.00 1.55558
180.50 1.55473
181.00 1.55447
181.50 1.55428
182.00 1.55377
182.50 1.55262
183.00 1.55125
183.50 1.54954
184.00 1.54780
184.50 1.54608
185.00 1.54440
185.50 1.54074
186.00 1.53688
186.50 1.53380
187.00 1.53080
187.50 1.52651
188.00 1.52097
188.50 1.51546
189.00 1.51000
189.50 1.50417
190.00 1.49680
190.50 1.48941
191.00 1.48201
191.50 1.47459
192.00 1.46852
192.50 1.46028
193.00 1.44781
193.50 1.43530
194.00 1.42275
194.50 1.40991
195.00 1.39468
195.50 1.38051
196.00 1.36624
196.50 1.35189
197.00 1.33936
197.50 1.32131
198.00 1.29994
198.50 1.27845
199.00 1.25739
199.50 1.23422
200.00 1.20945
200.50 1.18639
201.00 1.16315
201.50 1.14022
202.00 1.11773
202.50 1.08624
203.00 1.05454
203.50 1.02261
204.00 0.99272
204.50 0.95843
205.00 0.92442
205.50 0.89226
206.00 0.85983
206.50 0.82644
207.00 0.79031
207.50 0.75061
208.00 0.71065
208.50 0.67043
209.00 0.63187
209.50 0.59569
210.00 0.55974
210.50 0.52361
211.00 0.48495
211.50 0.44619
212.00 0.41204
212.50 0.37776
213.00 0.34681
213.50 0.31634
214.00 0.29193
214.50 0.26878
215.00 0.24515
215.50 0.22110
216.00 0.19702
216.50 0.17532
217.00 0.16092
217.50 0.14795
218.00 0.13499
218.50 0.12202
219.00 0.10906
219.50 0.09609
220.00 0.08456
220.50 0.07780
221.00 0.07103
221.50 0.06410
222.00 0.05716
222.50 0.05022
223.00 0.04549
223.50 0.04142
224.00 0.03744
224.50 0.03345
225.00 0.02947
225.50 0.02705
226.00 0.02463
226.50 0.02222
227.00 0.01980
227.50 0.01740
228.00 0.01597
228.50 0.01461
229.00 0.01325
229.50 0.01188
230.00 0.01052
230.50 0.00943
231.00 0.00847
231.50 0.00768
232.00 0.00706
232.50 0.00644
233.00 0.00582
233.50 0.00520
234.00 0.00461
234.50 0.00405
235.00 0.00375
235.50 0.00348
236.00 0.00320
236.50 0.00293
237.00 0.00265
237.50 0.00238
238.00 0.00210
238.50 0.00188
239.00 0.00175
239.50 0.00163
240.00 0.00150
240.50 0.00138
241.00 0.00125
241.50 0.00113
242.00 0.00100
242.50 0.00091
243.00 0.00086
243.50 0.00081
244.00 0.00076
244.50 0.00071
245.00 0.00066
245.50 0.00061
246.00 0.00056
246.50 0.00053
247.00 0.00051
247.50 0.00048
248.00 0.00046
248.50 0.00044
249.00 0.00041
249.50 0.00039
250.00 0.00038
250.50 0.00036
251.00 0.00035
251.50 0.00034
252.00 0.00033
252.50 0.00032
253.00 0.00030
253.50 0.00029
254.00 0.00028
254.50 0.00027
255.00 0.00026
255.50 0.00025
256.00 0.00024
256.50 0.00024
257.00 0.00023
257.50 0.00022
258.00 0.00021
258.50 0.00020
259.00 0.00019
259.50 0.00018
260.00 0.00017
260.50 0.00016
261.00 0.00016
261.50 0.00015
262.00 0.00014
262.50 0.00013
263.00 0.00012
263.50 0.00011
264.00 0.00010
264.50 0.00010
265.00 0.00009
265.50 0.00008
266.00 0.00007
266.50 0.00006
267.00 0.00005
267.50 0.00004
268.00 0.00004
268.50 0.00004
269.00 0.00003
269.50 0.00003
270.00 0.00002
270.00 0.00002
270.50 0.00003
271.00 0.00003
271.50 0.00004
272.00 0.00004
272.50 0.00004
273.00 0.00005
273.50 0.00006
274.00 0.00007
274.50 0.00008
275.00 0.00009
275.50 0.00010
276.00 0.00010
276.50 0.00011
277.00 0.00012
277.50 0.00013
278.00 0.00014
278.50 0.00015
279.00 0.00016
279.50 0.00016
280.00 0.00017
280.50 0.00018
281.00 0.00019
281.50 0.00020
282.00 0.00021
282.50 0.00022
283.00 0.00023
283.50 0.00024
284.00 0.00024
284.50 0.00025
285.00 0.00026
285.50 0.00027
286.00 0.00028
286.50 0.00029
287.00 0.00030
287.50 0.00032
288.00 0.00033
288.50 0.00034
289.00 0.00035
289.50 0.00036
290.00 0.00038
290.50 0.00039
291.00 0.00041
291.50 0.00044
292.00 0.00046
292.50 0.00048
293.00 0.00051
293.50 0.00053
294.00 0.00056
294.50 0.00061
295.00 0.00066
295.50 0.00071
296.00 0.00076
296.50 0.00081
297.00 0.00086
297.50 0.00091
298.00 0.00100
298.50 0.00113
299.00 0.00125
299.50 0.00138
300.00 0.00150
300.50 0.00163
301.00 0.00175
301.50 0.00188
302.00 0.00210
302.50 0.00238
303.00 0.00265
303.50 0.00293
304.00 0.00320
304.50 0.00348
305.00 0.00375
305.50 0.00405
306.00 0.00461
306.50 0.00520
307.00 0.00582
307.50 0.00644
308.00 0.00706
308.50 0.00768
309.00 0.00847
309.50 0.00943
310.00 0.01052
310.50 0.01188
311.00 0.01325
311.50 0.01461
312.00 0.01597
312.50 0.01740
313.00 0.01980
313.50 0.02222
314.00 0.02463
314.50 0.02705
315.00 0.02947
315.50 0.03345
316.00 0.03744
316.50 0.04142
317.00 0.04549
317.50 0.05022
318.00 0.05716
318.50 0.06410
319.00 0.07103
319.50 0.07780
320.00 0.08456
320.50 0.09609
321.00 0.10906
321.50 0.12202
322.00 0.13499
322.50 0.14795
323.00 0.16092
323.50 0.17532
324.00 0.19702
324.50 0.22110
325.00 0.24515
325.50 0.26878
326.00 0.29193
326.50 0.31634
327.00 0.34681
327.50 0.37776
328.00 0.41204
328.50 0.44619
329.00 0.48495
329.50 0.52361
330.00 0.55974
330.50 0.59569
331.00 0.63187
331.50 0.67043
332.00 0.71065
332.50 0.75061
333.00 0.79031
333.50 0.82644
334.00 0.85983
334.50 0.89226
335.00 0.92442
335.50 0.95843
336.00 0.99272
336.50 1.02261
337.00 1.05454
337.50 1.08624
338.00 1.11773
338.50 1.14022
339.00 1.16315
339.50 1.18639
340.00 1.20945
340.50 1.23422
341.00 1.25739
341.50 1.27845
342.00 1.29994
342.50 1.32131
343.00 1.33936
343.50 1.35189
344.00 1.36624
344.50 1.38051
345.00 1.39468
345.50 1.40991
346.00 1.42275
346.50 1.43530
347.00 1.44781
347.50 1.46028
348.00 1.46852
348.50 1.47459
349.00 1.48201
349.50 1.48941
350.00 1.49680
350.50 1.50417
351.00 1.51000
351.50 1.51546
352.00 1.52097
352.50 1.52651
353.00 1.53080
353.50 1.53380
354.00 1.53688
354.50 1.54074
355.00 1.54440
355.50 1.54608
356.00 1.54780
356.50 1.54954
357.00 1.55125
357.50 1.55262
358.00 1.55377
358.50 1.55428
359.00 1.55447
359.50 1.55473
360.00 1.55558
