phi[deg] B[T]
0.00 1.99175
0.50 1.99165
1.00 1.99170
1.50 1.99190
2.00 1.99225
2.50 1.99283
3.00 1.99296
3.50 1.99392
4.00 1.99502
4.50 1.99626
5.00 1.99764
5.50 1.99916
6.00 2.00086
6.50 2.00271
7.00 2.00469
7.50 2.00526
8.00 2.00581
8.50 2.00677
9.00 2.00824
9.50 2.00983
10.00 2.01155
10.50 2.01082
11.00 2.00933
11.50 2.00838
12.00 2.00777
12.50 2.00727
13.00 2.00689
13.50 2.00639
14.00 2.00469
14.50 2.00213
15.00 1.99711
15.50 1.99271
16.00 1.98985
16.50 1.98707
17.00 1.98437
17.50 1.98075
18.00 1.97416
18.50 1.96764
19.00 1.96141
19.50 1.95718
20.00 1.95301
20.50 1.94730
21.00 1.93922
21.50 1.93118
22.00 1.92211
22.50 1.91175
23.00 1.90141
23.50 1.89111
24.00 1.87814
24.50 1.86458
25.00 1.85106
25.50 1.83744
26.00 1.82128
26.50 1.80567
27.00 1.79025
27.50 1.77487
28.00 1.75854
28.50 1.74102
29.00 1.72339
29.50 1.70495
30.00 1.68654
30.50 1.66817
31.00 1.64784
31.50 1.62647
32.00 1.60737
32.50 1.58827
33.00 1.56919
33.50 1.54877
34.00 1.52662
34.50 1.50446
35.00 1.48155
35.50 1.45782
36.00 1.43410
36.50 1.41039
37.00 1.38628
37.50 1.36127
38.00 1.33686
38.50 1.31245
39.00 1.28806
39.50 1.26340
40.00 1.23835
40.50 1.21438
41.00 1.19041
41.50 1.16642
42.00 1.14174
42.50 1.11812
43.00 1.09522
43.50 1.07233
44.00 1.04950
44.50 1.02666
45.00 1.00360
45.50 0.98125
46.00 0.95947
46.50 0.93767
47.00 0.91656
47.50 0.89603
48.00 0.87430
48.50 0.85165
49.00 0.83113
49.50 0.81090
50.00 0.79027
50.50 0.76830
51.00 0.74843
51.50 0.72850
52.00 0.70852
52.50 0.68834
53.00 0.66487
53.50 0.64310
54.00 0.62205
54.50 0.60092
55.00 0.57972
55.50 0.55819
56.00 0.53444
56.50 0.51280
57.00 0.49106
57.50 0.46923
58.00 0.44737
58.50 0.42633
59.00 0.40522
59.50 0.38165
60.00 0.35799
60.50 0.33427
61.00 0.31048
61.50 0.28714
62.00 0.26975
62.50 0.25255
63.00 0.23529
63.50 0.21797
64.00 0.20059
64.50 0.18229
65.00 0.17030
65.50 0.15853
66.00 0.14675
66.50 0.13491
67.00 0.12295
67.50 0.11097
68.00 0.10144
68.50 0.09483
69.00 0.08822
69.50 0.08160
70.00 0.07486
70.50 0.06810
71.00 0.06135
71.50 0.05500
72.00 0.05107
72.50 0.04740
73.00 0.04374
73.50 0.04008
74.00 0.03642
74.50 0.03277
75.00 0.03015
75.50 0.02813
76.00 0.02610
76.50 0.02409
77.00 0.02207
77.50 0.01998
78.00 0.01788
78.50 0.01653
79.00 0.01545
79.50 0.01437
80.00 0.01329
80.50 0.01221
81.00 0.01113
81.50 0.01008
82.00 0.00932
82.50 0.00870
83.00 0.00812
83.50 0.00753
84.00 0.00695
84.50 0.00643
85.00 0.00612
85.50 0.00581
86.00 0.00550
86.50 0.00518
87.00 0.00486
87.50 0.00475
88.00 0.00462
88.50 0.00449
89.00 0.00436
89.50 0.00423
90.00 0.00410
90.00 0.00410
90.50 0.00423
91.00 0.00436
91.50 0.00449
92.00 0.00462
92.50 0.00475
93.00 0.00486
93.50 0.00518
94.00 0.00550
94.50 0.00581
95.00 0.00612
95.50 0.00643
96.00 0.00695
96.50 0.00753
97.00 0.00812
97.50 0.00870
98.00 0.00932
98.50 0.01008
99.00 0.01113
99.50 0.01221
100.00 0.01329
100.50 0.01437
101.00 0.01545
101.50 0.01653
102.00 0.01788
102.50 0.01998
103.00 0.02207
103.50 0.02409
104.00 0.02610
104.50 0.02813
105.00 0.03015
105.50 0.03277
106.00 0.03642
106.50 0.04008
107.00 0.04374
107.50 0.04740
108.00 0.05107
108.50 0.05500
109.00 0.06135
109.50 0.06810
110.00 0.07486
110.50 0.08160
111.00 0.08822
111.50 0.09483
112.00 0.10144
112.50 0.11097
113.00 0.12295
113.50 0.13491
114.00 0.14675
114.50 0.15853
115.00 0.17030
115.50 0.18229
116.00 0.20059
116.50 0.21797
117.00 0.23529
117.50 0.25255
118.00 0.26975
118.50 0.28714
119.00 0.31048
119.50 0.33427
120.00 0.35799
120.50 0.38165
121.00 0.40522
121.50 0.42633
122.00 0.44737
122.50 0.46923
123.00 0.49106
123.50 0.51280
124.00 0.53444
124.50 0.55819
125.00 0.57972
125.50 0.60092
126.00 0.62205
126.50 0.64310
127.00 0.66487
127.50 0.68834
128.00 0.70852
128.50 0.72850
129.00 0.74843
129.50 0.76830
130.00 0.79027
130.50 0.81090
131.00 0.83113
131.50 0.85165
132.00 0.87430
132.50 0.89603
133.00 0.91656
133.50 0.93767
134.00 0.95947
134.50 0.98125
135.00 1.00360
135.50 1.02666
136.00 1.04950
136.50 1.07233
137.00 1.09522
137.50 1.11812
138.00 1.14174
138.50 1.16642
139.00 1.19041
139.50 1.21438
140.00 1.23835
140.50 1.26340
141.00 1.28806
141.50 1.31245
142.00 1.33686
142.50 1.36127
143.00 1.38628
143.50 1.41039
144.00 1.43410
144.50 1.45782
145.00 1.48155
145.50 1.50446
146.00 1.52662
146.50 1.54877
147.00 1.56919
147.50 1.58827
148.00 1.60737
148.50 1.62647
149.00 1.64784
149.50 1.66817
150.00 1.68654
150.50 1.70495
151.00 1.72339
151.50 1.74102
152.00 1.75854
152.50 1.77487
153.00 1.79025
153.50 1.80567
154.00 1.82128
154.50 1.83744
155.00 1.85106
155.50 1.86458
156.00 1.87814
156.50 1.89111
157.00 1.90141
157.50 1.91175
158.00 1.92211
158.50 1.93118
159.00 1.93922
159.50 1.94730
160.00 1.95301
160.50 1.95718
161.00 1.96141
161.50 1.96764
162.00 1.97416
162.50 1.98075
163.00 1.98437
163.50 1.98707
164.00 1.98985
164.50 1.99271
165.00 1.99711
165.50 2.00213
166.00 2.00469
166.50 2.00639
167.00 2.00689
167.50 2.00727
168.00 2.00777
168.50 2.00838
169.00 2.00933
169.50 2.01082
170.00 2.01155
170.50 2.00983
171.00 2.00824
171.50 2.00677
172.00 2.00581
172.50 2.00526
173.00 2.00469
173.50 2.00271
174.00 2.00086
174.50 1.99916
175.00 1.99764
175.50 1.99626
176.00 1.99502
176.50 1.99392
177.00 1.99296
177.50 1.99283
178.00 1.99225
178.50 1.99190
179.00 1.99170
179.50 1.99165
180.00 1.99175
180.00 1.99175
180.50 1.99165
181.00 1.99170
181.50 1.99190
182.00 1.99225
182.50 1.99283
183.00 1.99296
183.50 1.99392
184.00 1.99502
184.50 1.99626
185.00 1.99764
185.50 1.99916
186.00 2.00086
186.50 2.00271
187.00 2.00469
187.50 2.00526
188.00 2.00581
188.50 2.00677
189.00 2.00824
189.50 2.00983
190.00 2.01155
190.50 2.01082
191.00 2.00933
191.50 2.00838
192.00 2.00777
192.50 2.00727
193.00 2.00689
193.50 2.00639
194.00 2.00469
194.50 2.00213
195.00 1.99711
195.50 1.99271
196.00 1.98985
196.50 1.98707
197.00 1.98437
197.50 1.98075
198.00 1.97416
198.50 1.96764
199.00 1.96141
199.50 1.95718
200.00 1.95301
200.50 1.94730
201.00 1.93922
201.50 1.93118
202.00 1.92211
202.50 1.91175
203.00 1.90141
203.50 1.89111
204.00 1.87814
204.50 1.86458
205.00 1.85106
205.50 1.83744
206.00 1.82128
206.50 1.80567
207.00 1.79025
207.50 1.77487
208.00 1.75854
208.50 1.74102
209.00 1.72339
209.50 1.70495
210.00 1.68654
210.50 1.66817
211.00 1.64784
211.50 1.62647
212.00 1.60737
212.50 1.58827
213.00 1.56919
213.50 1.54877
214.00 1.52662
214.50 1.50446
215.00 1.48155
215.50 1.45782
216.00 1.43410
216.50 1.41039
217.00 1.38628
217.50 1.36127
218.00 1.33686
218.50 1.31245
219.00 1.28806
219.50 1.26340
220.00 1.23835
220.50 1.21438
221.00 1.19041
221.50 1.16642
222.00 1.14174
222.50 1.11812
223.00 1.09522
223.50 1.07233
224.00 1.04950
224.50 1.02666
225.00 1.00360
225.50 0.98125
226.00 0.95947
226.50 0.93767
227.00 0.91656
227.50 0.89603
228.00 0.87430
228.50 0.85165
229.00 0.83113
229.50 0.81090
230.00 0.79027
230.50 0.76830
231.00 0.74843
231.50 0.72850
232.00 0.70852
232.50 0.68834
233.00 0.66487
233.50 0.64310
234.00 0.62205
234.50 0.60092
235.00 0.57972
235.50 0.55819
236.00 0.53444
236.50 0.51280
237.00 0.49106
237.50 0.46923
238.00 0.44737
238.50 0.42633
239.00 0.40522
239.50 0.38165
240.00 0.35799
240.50 0.33427
241.00 0.31048
241.50 0.28714
242.00 0.26975
242.50 0.25255
243.00 0.23529
243.50 0.21797
244.00 0.20059
244.50 0.18229
245.00 0.17030
245.50 0.15853
246.00 0.14675
246.50 0.13491
247.00 0.12295
247.50 0.11097
248.00 0.10144
248.50 0.09483
249.00 0.08822
249.50 0.08160
250.00 0.07486
250.50 0.06810
251.00 0.06135
251.50 0.05500
252.00 0.05107
252.50 0.04740
253.00 0.04374
253.50 0.04008
254.00 0.03642
254.50 0.03277
255.00 0.03015
255.50 0.02813
256.00 0.02610
256.50 0.02409
257.00 0.02207
257.50 0.01998
258.00 0.01788
258.50 0.01653
259.00 0.01545
259.50 0.01437
260.00 0.01329
260.50 0.01221
261.00 0.01113
261.50 0.01008
262.00 0.00932
262.50 0.00870
263.00 0.00812
263.50 0.00753
264.00 0.00695
264.50 0.00643
265.00 0.00612
265.50 0.00581
266.00 0.00550
266.50 0.00518
267.00 0.00486
267.50 0.00475
268.00 0.00462
268.50 0.00449
269.00 0.00436
269.50 0.00423
270.00 0.00410
270.00 0.00410
270.50 0.00423
271.00 0.00436
271.50 0.00449
272.00 0.00462
272.50 0.00475
273.00 0.00486
273.50 0.00518
274.00 0.00550
274.50 0.00581
275.00 0.00612
275.50 0.00643
276.00 0.00695
276.50 0.00753
277.00 0.00812
277.50 0.00870
278.00 0.00932
278.50 0.01008
279.00 0.01113
279.50 0.01221
280.00 0.01329
280.50 0.01437
281.00 0.01545
281.50 0.01653
282.00 0.01788
282.50 0.01998
283.00 0.02207
283.50 0.02409
284.00 0.02610
284.50 0.02813
285.00 0.03015
285.50 0.03277
286.00 0.03642
286.50 0.04008
287.00 0.04374
287.50 0.04740
288.00 0.05107
288.50 0.05500
289.00 0.06135
289.50 0.06810
290.00 0.07486
290.50 0.08160
291.00 0.08822
291.50 0.09483
292.00 0.10144
292.50 0.11097
293.00 0.12295
293.50 0.13491
294.00 0.14675
294.50 0.15853
295.00 0.17030
295.50 0.18229
296.00 0.20059
296.50 0.21797
297.00 0.23529
297.50 0.25255
298.00 0.26975
298.50 0.28714
299.00 0.31048
299.50 0.33427
300.00 0.35799
300.50 0.38165
301.00 0.40522
301.50 0.42633
302.00 0.44737
302.50 0.46923
303.00 0.49106
303.50 0.51280
304.00 0.53444
304.50 0.55819
305.00 0.57972
305.50 0.60092
306.00 0.62205
306.50 0.64310
307.00 0.66487
307.50 0.68834
308.00 0.70852
308.50 0.72850
309.00 0.74843
309.50 0.76830
310.00 0.79027
310.50 0.81090
311.00 0.83113
311.50 0.85165
312.00 0.87430
312.50 0.89603
313.00 0.91656
313.50 0.93767
314.00 0.95947
314.50 0.98125
315.00 1.00360
315.50 1.02666
316.00 1.04950
316.50 1.07233
317.00 1.09522
317.50 1.11812
318.00 1.14174
318.50 1.16642
319.00 1.19041
319.50 1.21438
320.00 1.23835
320.50 1.26340
321.00 1.28806
321.50 1.31245
322.00 1.33686
322.50 1.36127
323.00 1.38628
323.50 1.41039
324.00 1.43410
324.50 1.45782
325.00 1.48155
325.50 1.50446
326.00 1.52662
326.50 1.54877
327.00 1.56919
327.50 1.58827
328.00 1.60737
328.50 1.62647
329.00 1.64784
329.50 1.66817
330.00 1.68654
330.50 1.70495
331.00 1.72339
331.50 1.74102
332.00 1.75854
332.50 1.77487
333.00 1.79025
333.50 1.80567
334.00 1.82128
334.50 1.83744
335.00 1.85106
335.50 1.86458
336.00 1.87814
336.50 1.89111
337.00 1.90141
337.50 1.91175
338.00 1.92211
338.50 1.93118
339.00 1.93922
339.50 1.94730
340.00 1.95301
340.50 1.95718
341.00 1.96141
341.50 1.96764
342.00 1.97416
342.50 1.98075
343.00 1.98437
343.50 1.98707
344.00 1.98985
344.50 1.99271
345.00 1.99711
345.50 2.00213
346.00 2.00469
346.50 2.00639
347.00 2.00689
347.50 2.00727
348.00 2.00777
348.50 2.00838
349.00 2.00933
349.50 2.01082
350.00 2.01155
350.50 2.00983
351.00 2.00824
351.50 2.00677
352.00 2.00581
352.50 2.00526
353.00 2.00469
353.50 2.00271
354.00 2.00086
354.50 1.99916
355.00 1.99764
355.50 1.99626
356.00 1.99502
356.50 1.99392
357.00 1.99296
357.50 1.99283
358.00 1.99225
358.50 1.99190
359.00 1.99170
359.50 1.99165
360.00 1.99175
