phi[deg] B[T]
0.00 1.09341
0.50 1.09341
1.00 1.09348
1.50 1.09366
2.00 1.09392
2.50 1.09425
3.00 1.09465
3.50 1.09489
4.00 1.09520
4.50 1.09560
5.00 1.09621
5.50 1.09706
6.00 1.09771
6.50 1.09844
7.00 1.09923
7.50 1.10010
8.00 1.10104
8.50 1.10137
9.00 1.10095
9.50 1.10129
10.00 1.10225
10.50 1.10326
11.00 1.10432
11.50 1.10543
12.00 1.10659
12.50 1.10787
13.00 1.10920
13.50 1.11058
14.00 1.11061
14.50 1.10977
15.00 1.10898
15.50 1.10822
16.00 1.10751
16.50 1.10683
17.00 1.10619
17.50 1.10753
18.00 1.10585
18.50 1.10386
19.00 1.10186
19.50 1.09984
20.00 1.09780
20.50 1.09576
21.00 1.09369
21.50 1.09161
22.00 1.08952
22.50 1.08787
23.00 1.08734
23.50 1.08292
24.00 1.07670
24.50 1.07041
25.00 1.06405
25.50 1.05761
26.00 1.05110
26.50 1.04451
27.00 1.03785
27.50 1.03112
28.00 1.02324
28.50 1.01504
29.00 1.00652
29.50 0.99661
30.00 0.98660
30.50 0.97651
31.00 0.96634
31.50 0.95493
32.00 0.94341
32.50 0.93180
33.00 0.92011
33.50 0.90754
34.00 0.89035
34.50 0.87307
35.00 0.85568
35.50 0.83939
36.00 0.82342
36.50 0.80734
37.00 0.79115
37.50 0.77485
38.00 0.75521
38.50 0.73440
39.00 0.71347
39.50 0.69243
40.00 0.67127
40.50 0.65154
41.00 0.63303
41.50 0.61197
42.00 0.58784
42.50 0.56358
43.00 0.54229
43.50 0.52182
44.00 0.50128
44.50 0.48067
45.00 0.45999
45.50 0.43996
46.00 0.41987
46.50 0.39971
47.00 0.37949
47.50 0.35916
48.00 0.33866
48.50 0.31843
49.00 0.29902
49.50 0.28447
50.00 0.26991
50.50 0.25533
51.00 0.24074
51.50 0.22614
52.00 0.21247
52.50 0.19908
53.00 0.18567
53.50 0.17546
54.00 0.16642
54.50 0.15739
55.00 0.14836
55.50 0.13933
56.00 0.13029
56.50 0.12164
57.00 0.11344
57.50 0.10523
58.00 0.09805
58.50 0.09326
59.00 0.08848
59.50 0.08370
60.00 0.07893
60.50 0.07417
61.00 0.06922
61.50 0.06414
62.00 0.05907
62.50 0.05400
63.00 0.05129
63.50 0.04868
64.00 0.04606
64.50 0.04345
65.00 0.04092
65.50 0.03840
66.00 0.03588
66.50 0.03336
67.00 0.03085
67.50 0.02888
68.00 0.02747
68.50 0.02606
69.00 0.02465
69.50 0.02325
70.00 0.02185
70.50 0.02045
71.00 0.01902
71.50 0.01753
72.00 0.01603
72.50 0.01498
73.00 0.01421
73.50 0.01349
74.00 0.01277
74.50 0.01206
75.00 0.01134
75.50 0.01062
76.00 0.00991
76.50 0.00919
77.00 0.00848
77.50 0.00805
78.00 0.00762
78.50 0.00719
79.00 0.00676
79.50 0.00634
80.00 0.00600
80.50 0.00566
81.00 0.00532
81.50 0.00498
82.00 0.00474
82.50 0.00456
83.00 0.00439
83.50 0.00422
84.00 0.00405
84.50 0.00387
85.00 0.00370
85.50 0.00354
86.00 0.00337
86.50 0.00326
87.00 0.00319
87.50 0.00312
88.00 0.00306
88.50 0.00299
89.00 0.00293
89.50 0.00286
90.00 0.00280
90.00 0.00280
90.50 0.00286
91.00 0.00293
91.50 0.00299
92.00 0.00306
92.50 0.00312
93.00 0.00319
93.50 0.00326
94.00 0.00337
94.50 0.00354
95.00 0.00370
95.50 0.00387
96.00 0.00405
96.50 0.00422
97.00 0.00439
97.50 0.00456
98.00 0.00474
98.50 0.00498
99.00 0.00532
99.50 0.00566
100.00 0.00600
100.50 0.00634
101.00 0.00676
101.50 0.00719
102.00 0.00762
102.50 0.00805
103.00 0.00848
103.50 0.00919
104.00 0.00991
104.50 0.01062
105.00 0.01134
105.50 0.01206
106.00 0.01277
106.50 0.01349
107.00 0.01421
107.50 0.01498
108.00 0.01603
108.50 0.01753
109.00 0.01902
109.50 0.02045
110.00 0.02185
110.50 0.02325
111.00 0.02465
111.50 0.02606
112.00 0.02747
112.50 0.02888
113.00 0.03085
113.50 0.03336
114.00 0.03588
114.50 0.03840
115.00 0.04092
115.50 0.04345
116.00 0.04606
116.50 0.04868
117.00 0.05129
117.50 0.05400
118.00 0.05907
118.50 0.06414
119.00 0.06922
119.50 0.07417
120.00 0.07893
120.50 0.08370
121.00 0.08848
121.50 0.09326
122.00 0.09805
122.50 0.10523
123.00 0.11344
123.50 0.12164
124.00 0.13029
124.50 0.13933
125.00 0.14836
125.50 0.15739
126.00 0.16642
126.50 0.17546
127.00 0.18567
127.50 0.19908
128.00 0.21247
128.50 0.22614
129.00 0.24074
129.50 0.25533
130.00 0.26991
130.50 0.28447
131.00 0.29902
131.50 0.31843
132.00 0.33866
132.50 0.35916
133.00 0.37949
133.50 0.39971
134.00 0.41987
134.50 0.43996
135.00 0.45999
135.50 0.48067
136.00 0.50128
136.50 0.52182
137.00 0.54229
137.50 0.56358
138.00 0.58784
138.50 0.61197
139.00 0.63303
139.50 0.65154
140.00 0.67127
140.50 0.69243
141.00 0.71347
141.50 0.73440
142.00 0.75521
142.50 0.77485
143.00 0.79115
143.50 0.80734
144.00 0.82342
144.50 0.83939
145.00 0.85568
145.50 0.87307
146.00 0.89035
146.50 0.90754
147.00 0.92011
147.50 0.93180
148.00 0.94341
148.50 0.95493
149.00 0.96634
149.50 0.97651
150.00 0.98660
150.50 0.99661
151.00 1.00652
151.50 1.01504
152.00 1.02324
152.50 1.03112
153.00 1.03785
153.50 1.04451
154.00 1.05110
154.50 1.05761
155.00 1.06405
155.50 1.07041
156.00 1.07670
156.50 1.08292
157.00 1.08734
157.50 1.08787
158.00 1.08952
158.50 1.09161
159.00 1.09369
159.50 1.09576
160.00 1.09780
160.50 1.09984
161.00 1.10186
161.50 1.10386
162.00 1.10585
162.50 1.10753
163.00 1.10619
163.50 1.10683
164.00 1.10751
164.50 1.10822
165.00 1.10898
165.50 1.10977
166.00 1.11061
166.50 1.11058
167.00 1.10920
167.50 1.10787
168.00 1.10659
168.50 1.10543
169.00 1.10432
169.50 1.10326
170.00 1.10225
170.50 1.10129
171.00 1.10095
171.50 1.10137
172.00 1.10104
172.50 1.10010
173.00 1.09923
173.50 1.09844
174.00 1.09771
174.50 1.09706
175.00 1.09621
175.50 1.09560
176.00 1.09520
176.50 1.09489
177.00 1.09465
177.50 1.09425
178.00 1.09392
178.50 1.09366
179.00 1.09348
179.50 1.09341
180.00 1.09341
180.00 1.09341
180.50 1.09341
181.00 1.09348
181.50 1.09366
182.00 1.09392
182.50 1.09425
183.00 1.09465
183.50 1.09489
184.00 1.09520
184.50 1.09560
185.00 1.09621
185.50 1.09706
186.00 1.09771
186.50 1.09844
187.00 1.09923
187.50 1.10010
188.00 1.10104
188.50 1.10137
189.00 1.10095
189.50 1.10129
190.00 1.10225
190.50 1.10326
191.00 1.10432
191.50 1.10543
192.00 1.10659
192.50 1.10787
193.00 1.10920
193.50 1.11058
194.00 1.11061
194.50 1.10977
195.00 1.10898
195.50 1.10822
196.00 1.10751
196.50 1.10683
197.00 1.10619
197.50 1.10753
198.00 1.10585
198.50 1.10386
199.00 1.10186
199.50 1.09984
200.00 1.09780
200.50 1.09576
201.00 1.09369
201.50 1.09161
202.00 1.08952
202.50 1.08787
203.00 1.08734
203.50 1.08292
204.00 1.07670
204.50 1.07041
205.00 1.06405
205.50 1.05761
206.00 1.05110
206.50 1.04451
207.00 1.03785
207.50 1.03112
208.00 1.02324
208.50 1.01504
209.00 1.00652
209.50 0.99661
210.00 0.98660
210.50 0.97651
211.00 0.96634
211.50 0.95493
212.00 0.94341
212.50 0.93180
213.00 0.92011
213.50 0.90754
214.00 0.89035
214.50 0.87307
215.00 0.85568
215.50 0.83939
216.00 0.82342
216.50 0.80734
217.00 0.79115
217.50 0.77485
218.00 0.75521
218.50 0.73440
219.00 0.71347
219.50 0.69243
220.00 0.67127
220.50 0.65154
221.00 0.63303
221.50 0.61197
222.00 0.58784
222.50 0.56358
223.00 0.54229
223.50 0.52182
224.00 0.50128
224.50 0.48067
225.00 0.45999
225.50 0.43996
226.00 0.41987
226.50 0.39971
227.00 0.37949
227.50 0.35916
228.00 0.33866
228.50 0.31843
229.00 0.29902
229.50 0.28447
230.00 0.26991
230.50 0.25533
231.00 0.24074
231.50 0.22614
232.00 0.21247
232.50 0.19908
233.00 0.18567
233.50 0.17546
234.00 0.16642
234.50 0.15739
235.00 0.14836
235.50 0.13933
236.00 0.13029
236.50 0.12164
237.00 0.11344
237.50 0.10523
238.00 0.09805
238.50 0.09326
239.00 0.08848
239.50 0.08370
240.00 0.07893
240.50 0.07417
241.00 0.06922
241.50 0.06414
242.00 0.05907
242.50 0.05400
243.00 0.05129
243.50 0.04868
244.00 0.04606
244.50 0.04345
245.00 0.04092
245.50 0.03840
246.00 0.03588
246.50 0.03336
247.00 0.03085
247.50 0.02888
248.00 0.02747
248.50 0.02606
249.00 0.02465
249.50 0.02325
250.00 0.02185
250.50 0.02045
251.00 0.01902
251.50 0.01753
252.00 0.01603
252.50 0.01498
253.00 0.01421
253.50 0.01349
254.00 0.01277
254.50 0.01206
255.00 0.01134
255.50 0.01062
256.00 0.00991
256.50 0.00919
257.00 0.00848
257.50 0.00805
258.00 0.00762
258.50 0.00719
259.00 0.00676
259.50 0.00634
260.00 0.00600
260.50 0.00566
261.00 0.00532
261.50 0.00498
262.00 0.00474
262.50 0.00456
263.00 0.00439
263.50 0.00422
264.00 0.00405
264.50 0.00387
265.00 0.00370
265.50 0.00354
266.00 0.00337
266.50 0.00326
267.00 0.00319
267.50 0.00312
268.00 0.00306
268.50 0.00299
269.00 0.00293
269.50 0.00286
270.00 0.00280
270.00 0.00280
270.50 0.00286
271.00 0.00293
271.50 0.00299
272.00 0.00306
272.50 0.00312
273.00 0.00319
273.50 0.00326
274.00 0.00337
274.50 0.00354
275.00 0.00370
275.50 0.00387
276.00 0.00405
276.50 0.00422
277.00 0.00439
277.50 0.00456
278.00 0.00474
278.50 0.00498
279.00 0.00532
279.50 0.00566
280.00 0.00600
280.50 0.00634
281.00 0.00676
281.50 0.00719
282.00 0.00762
282.50 0.00805
283.00 0.00848
283.50 0.00919
284.00 0.00991
284.50 0.01062
285.00 0.01134
285.50 0.01206
286.00 0.01277
286.50 0.01349
287.00 0.01421
287.50 0.01498
288.00 0.01603
288.50 0.01753
289.00 0.01902
289.50 0.02045
290.00 0.02185
290.50 0.02325
291.00 0.02465
291.50 0.02606
292.00 0.02747
292.50 0.02888
293.00 0.03085
293.50 0.03336
294.00 0.03588
294.50 0.03840
295.00 0.04092
295.50 0.04345
296.00 0.04606
296.50 0.04868
297.00 0.05129
297.50 0.05400
298.00 0.05907
298.50 0.06414
299.00 0.06922
299.50 0.07417
300.00 0.07893
300.50 0.08370
301.00 0.08848
301.50 0.09326
302.00 0.09805
302.50 0.10523
303.00 0.11344
303.50 0.12164
304.00 0.13029
304.50 0.13933
305.00 0.14836
305.50 0.15739
306.00 0.16642
306.50 0.17546
307.00 0.18567
307.50 0.19908
308.00 0.21247
308.50 0.22614
309.00 0.24074
309.50 0.25533
310.00 0.26991
310.50 0.28447
311.00 0.29902
311.50 0.31843
312.00 0.33866
312.50 0.35916
313.00 0.37949
313.50 0.39971
314.00 0.41987
314.50 0.43996
315.00 0.45999
315.50 0.48067
316.00 0.50128
316.50 0.52182
317.00 0.54229
317.50 0.56358
318.00 0.58784
318.50 0.61197
319.00 0.63303
319.50 0.65154
320.00 0.67127
320.50 0.69243
321.00 0.71347
321.50 0.73440
322.00 0.75521
322.50 0.77485
323.00 0.79115
323.50 0.80734
324.00 0.82342
324.50 0.83939
325.00 0.85568
325.50 0.87307
326.00 0.89035
326.50 0.90754
327.00 0.92011
327.50 0.93180
328.00 0.94341
328.50 0.95493
329.00 0.96634
329.50 0.97651
330.00 0.98660
330.50 0.99661
331.00 1.00652
331.50 1.01504
332.00 1.02324
332.50 1.03112
333.00 1.03785
333.50 1.04451
334.00 1.05110
334.50 1.05761
335.00 1.06405
335.50 1.07041
336.00 1.07670
336.50 1.08292
337.00 1.08734
337.50 1.08787
338.00 1.08952
338.50 1.09161
339.00 1.09369
339.50 1.09576
340.00 1.09780
340.50 1.09984
341.00 1.10186
341.50 1.10386
342.00 1.10585
342.50 1.10753
343.00 1.10619
343.50 1.10683
344.00 1.10751
344.50 1.10822
345.00 1.10898
345.50 1.10977
346.00 1.11061
346.50 1.11058
347.00 1.10920
347.50 1.10787
348.00 1.10659
348.50 1.10543
349.00 1.10432
349.50 1.10326
350.00 1.10225
350.50 1.10129
351.00 1.10095
351.50 1.10137
352.00 1.10104
352.50 1.10010
353.00 1.09923
353.50 1.09844
354.00 1.09771
354.50 1.09706
355.00 1.09621
355.50 1.09560
356.00 1.09520
356.50 1.09489
357.00 1.09465
357.50 1.09425
358.00 1.09392
358.50 1.09366
359.00 1.09348
359.50 1.09341
360.00 1.09341
