phi[deg] B[T]
0.00 1.56327
0.50 1.56212
1.00 1.56107
1.50 1.56013
2.00 1.55869
2.50 1.55744
3.00 1.55631
3.50 1.55466
4.00 1.55264
4.50 1.55177
5.00 1.55113
5.50 1.55068
6.00 1.55045
6.50 1.55034
7.00 1.55049
7.50 1.55077
8.00 1.55167
8.50 1.55329
9.00 1.55504
9.50 1.55622
10.00 1.55677
10.50 1.55745
11.00 1.55886
11.50 1.56038
12.00 1.56177
12.50 1.56118
13.00 1.56068
13.50 1.56026
14.00 1.55965
14.50 1.55908
15.00 1.55834
15.50 1.55761
16.00 1.55667
16.50 1.55583
17.00 1.55525
17.50 1.55500
18.00 1.55485
18.50 1.55481
19.00 1.55419
19.50 1.55151
20.00 1.54754
20.50 1.54652
21.00 1.54554
21.50 1.54460
22.00 1.53983
22.50 1.53051
23.00 1.52122
23.50 1.51303
24.00 1.50646
24.50 1.49002
25.00 1.47185
25.50 1.45642
26.00 1.44101
26.50 1.42564
27.00 1.40762
27.50 1.38823
28.00 1.36901
28.50 1.35139
29.00 1.33385
29.50 1.31682
30.00 1.30003
30.50 1.28332
31.00 1.26653
31.50 1.24937
32.00 1.23121
32.50 1.21509
33.00 1.19935
33.50 1.18365
34.00 1.16629
34.50 1.14762
35.00 1.12929
35.50 1.11148
36.00 1.09263
36.50 1.07239
37.00 1.05220
37.50 1.03156
38.00 1.01192
38.50 0.99240
39.00 0.97293
39.50 0.95344
40.00 0.93558
40.50 0.91748
41.00 0.89931
41.50 0.88147
42.00 0.86523
42.50 0.84851
43.00 0.83238
43.50 0.81686
44.00 0.80105
44.50 0.78522
45.00 0.77014
45.50 0.75502
46.00 0.73945
46.50 0.72363
47.00 0.70824
47.50 0.69246
48.00 0.67625
48.50 0.66068
49.00 0.64445
49.50 0.62717
50.00 0.61025
50.50 0.59497
51.00 0.57976
51.50 0.56215
52.00 0.54386
52.50 0.52551
53.00 0.50914
53.50 0.49430
54.00 0.47911
54.50 0.45955
55.00 0.43972
55.50 0.41976
56.00 0.39991
56.50 0.38124
57.00 0.36244
57.50 0.34077
58.00 0.31826
58.50 0.29562
59.00 0.27049
59.50 0.24388
60.00 0.21729
60.50 0.19842
61.00 0.17947
61.50 0.16044
62.00 0.13810
62.50 0.11571
63.00 0.10134
63.50 0.08707
64.00 0.07603
64.50 0.06505
65.00 0.05574
65.50 0.04889
66.00 0.04202
66.50 0.03514
67.00 0.02953
67.50 0.02621
68.00 0.02287
68.50 0.01949
69.00 0.01611
69.50 0.01418
70.00 0.01243
70.50 0.01063
71.00 0.00883
71.50 0.00762
72.00 0.00667
72.50 0.00573
73.00 0.00478
73.50 0.00412
74.00 0.00361
74.50 0.00314
75.00 0.00267
75.50 0.00226
76.00 0.00200
76.50 0.00173
77.00 0.00151
77.50 0.00132
78.00 0.00114
78.50 0.00102
79.00 0.00090
79.50 0.00078
80.00 0.00071
80.50 0.00063
81.00 0.00057
81.50 0.00052
82.00 0.00047
82.50 0.00042
83.00 0.00038
83.50 0.00035
84.00 0.00032
84.50 0.00029
85.00 0.00026
85.50 0.00023
86.00 0.00020
86.50 0.00018
87.00 0.00015
87.50 0.00012
88.00 0.00010
88.50 0.00007
89.00 0.00007
89.50 0.00006
90.00 0.00005
90.00 0.00005
90.50 0.00006
91.00 0.00007
91.50 0.00007
92.00 0.00010
92.50 0.00012
93.00 0.00015
93.50 0.00018
94.00 0.00020
94.50 0.00023
95.00 0.00026
95.50 0.00029
96.00 0.00032
96.50 0.00035
97.00 0.00038
97.50 0.00042
98.00 0.00047
98.50 0.00052
99.00 0.00057
99.50 0.00063
100.00 0.00071
100.50 0.00078
101.00 0.00090
101.50 0.00102
102.00 0.00114
102.50 0.00132
103.00 0.00151
103.50 0.00173
104.00 0.00200
104.50 0.00226
105.00 0.00267
105.50 0.00314
106.00 0.00361
106.50 0.00412
107.00 0.00478
107.50 0.00573
108.00 0.00667
108.50 0.00762
109.00 0.00883
109.50 0.01063
110.00 0.01243
110.50 0.01418
111.00 0.01611
111.50 0.01949
112.00 0.02287
112.50 0.02621
113.00 0.02953
113.50 0.03514
114.00 0.04202
114.50 0.04889
115.00 0.05574
115.50 0.06505
116.00 0.07603
116.50 0.08707
117.00 0.10134
117.50 0.11571
118.00 0.13810
118.50 0.16044
119.00 0.17947
119.50 0.19842
120.00 0.21729
120.50 0.24388
121.00 0.27049
121.50 0.29562
122.00 0.31826
122.50 0.34077
123.00 0.36244
123.50 0.38124
124.00 0.39991
124.50 0.41976
125.00 0.43972
125.50 0.45955
126.00 0.47911
126.50 0.49430
127.00 0.50914
127.50 0.52551
128.00 0.54386
128.50 0.56215
129.00 0.57976
129.50 0.59497
130.00 0.61025
130.50 0.62717
131.00 0.64445
131.50 0.66068
132.00 0.67625
132.50 0.69246
133.00 0.70824
133.50 0.72363
134.00 0.73945
134.50 0.75502
135.00 0.77014
135.50 0.78522
136.00 0.80105
136.50 0.81686
137.00 0.83238
137.50 0.84851
138.00 0.86523
138.50 0.88147
139.00 0.89931
139.50 0.91748
140.00 0.93558
140.50 0.95344
141.00 0.97293
141.50 0.99240
142.00 1.01192
142.50 1.03156
143.00 1.05220
143.50 1.07239
144.00 1.09263
144.50 1.11148
145.00 1.12929
145.50 1.14762
146.00 1.16629
146.50 1.18365
147.00 1.19935
147.50 1.21509
148.00 1.23121
148.50 1.24937
149.00 1.26653
149.50 1.28332
150.00 1.30003
150.50 1.31682
151.00 1.33385
151.50 1.35139
152.00 1.36901
152.50 1.38823
153.00 1.40762
153.50 1.42564
154.00 1.44101
154.50 1.45642
155.00 1.47185
155.50 1.49002
156.00 1.50646
156.50 1.51303
157.00 1.52122
157.50 1.53051
158.00 1.53983
158.50 1.54460
159.00 1.54554
159.50 1.54652
160.00 1.54754
160.50 1.55151
161.00 1.55419
161.50 1.55481
162.00 1.55485
162.50 1.55500
163.00 1.55525
163.50 1.55583
164.00 1.55667
164.50 1.55761
165.00 1.55834
165.50 1.55908
166.00 1.55965
166.50 1.56026
167.00 1.56068
167.50 1.56118
168.00 1.56177
168.50 1.56038
169.00 1.55886
169.50 1.55745
170.00 1.55677
170.50 1.55622
171.00 1.55504
171.50 1.55329
172.00 1.55167
172.50 1.55077
173.00 1.55049
173.50 1.55034
174.00 1.55045
174.50 1.55068
175.00 1.55113
175.50 1.55177
176.00 1.55264
176.50 1.55466
177.00 1.55631
177.50 1.55744
178.00 1.55869
178.50 1.56013
179.00 1.56107
179.50 1.56212
180.00 1.56327
180.00 1.56327
180.50 1.56212
181.00 1.56107
181.50 1.56013
182.00 1.55869
182.50 1.55744
183.00 1.55631
183.50 1.55466
184.00 1.55264
184.50 1.55177
185.00 1.55113
185.50 1.55068
186.00 1.55045
186.50 1.55034
187.00 1.55049
187.50 1.55077
188.00 1.55167
188.50 1.55329
189.00 1.55504
189.50 1.55622
190.00 1.55677
190.50 1.55745
191.00 1.55886
191.50 1.56038
192.00 1.56177
192.50 1.56118
193.00 1.56068
193.50 1.56026
194.00 1.55965
194.50 1.55908
195.00 1.55834
195.50 1.55761
196.00 1.55667
196.50 1.55583
197.00 1.55525
197.50 1.55500
198.00 1.55485
198.50 1.55481
199.00 1.55419
199.50 1.55151
200.00 1.54754
200.50 1.54652
201.00 1.54554
201.50 1.54460
202.00 1.53983
202.50 1.53051
203.00 1.52122
203.50 1.51303
204.00 1.50646
204.50 1.49002
205.00 1.47185
205.50 1.45642
206.00 1.44101
206.50 1.42564
207.00 1.40762
207.50 1.38823
208.00 1.36901
208.50 1.35139
209.00 1.33385
209.50 1.31682
210.00 1.30003
210.50 1.28332
211.00 1.26653
211.50 1.24937
212.00 1.23121
212.50 1.21509
213.00 1.19935
213.50 1.18365
214.00 1.16629
214.50 1.14762
215.00 1.12929
215.50 1.11148
216.00 1.09263
216.50 1.07239
217.00 1.05220
217.50 1.03156
218.00 1.01192
218.50 0.99240
219.00 0.97293
219.50 0.95344
220.00 0.93558
220.50 0.91748
221.00 0.89931
221.50 0.88147
222.00 0.86523
222.50 0.84851
223.00 0.83238
223.50 0.81686
224.00 0.80105
224.50 0.78522
225.00 0.77014
225.50 0.75502
226.00 0.73945
226.50 0.72363
227.00 0.70824
227.50 0.69246
228.00 0.67625
228.50 0.66068
229.00 0.64445
229.50 0.62717
230.00 0.61025
230.50 0.59497
231.00 0.57976
231.50 0.56215
232.00 0.54386
232.50 0.52551
233.00 0.50914
233.50 0.49430
234.00 0.47911
234.50 0.45955
235.00 0.43972
235.50 0.41976
236.00 0.39991
236.50 0.38124
237.00 0.36244
237.50 0.34077
238.00 0.31826
238.50 0.29562
239.00 0.27049
239.50 0.24388
240.00 0.21729
240.50 0.19842
241.00 0.17947
241.50 0.16044
242.00 0.13810
242.50 0.11571
243.00 0.10134
243.50 0.08707
244.00 0.07603
244.50 0.06505
245.00 0.05574
245.50 0.04889
246.00 0.04202
246.50 0.03514
247.00 0.02953
247.50 0.02621
248.00 0.02287
248.50 0.01949
249.00 0.01611
249.50 0.01418
250.00 0.01243
250.50 0.01063
251.00 0.00883
251.50 0.00762
252.00 0.00667
252.50 0.00573
253.00 0.00478
253.50 0.00412
254.00 0.00361
254.50 0.00314
255.00 0.00267
255.50 0.00226
256.00 0.00200
256.50 0.00173
257.00 0.00151
257.50 0.00132
258.00 0.00114
258.50 0.00102
259.00 0.00090
259.50 0.00078
260.00 0.00071
260.50 0.00063
261.00 0.00057
261.50 0.00052
262.00 0.00047
262.50 0.00042
263.00 0.00038
263.50 0.00035
264.00 0.00032
264.50 0.00029
265.00 0.00026
265.50 0.00023
266.00 0.00020
266.50 0.00018
267.00 0.00015
267.50 0.00012
268.00 0.00010
268.50 0.00007
269.00 0.00007
269.50 0.00006
270.00 0.00005
270.00 0.00005
270.50 0.00006
271.00 0.00007
271.50 0.00007
272.00 0.00010
272.50 0.00012
273.00 0.00015
273.50 0.00018
274.00 0.00020
274.50 0.00023
275.00 0.00026
275.50 0.00029
276.00 0.00032
276.50 0.00035
277.00 0.00038
277.50 0.00042
278.00 0.00047
278.50 0.00052
279.00 0.00057
279.50 0.00063
280.00 0.00071
280.50 0.00078
281.00 0.00090
281.50 0.00102
282.00 0.00114
282.50 0.00132
283.00 0.00151
283.50 0.00173
284.00 0.00200
284.50 0.00226
285.00 0.00267
285.50 0.00314
286.00 0.00361
286.50 0.00412
287.00 0.00478
287.50 0.00573
288.00 0.00667
288.50 0.00762
289.00 0.00883
289.50 0.01063
290.00 0.01243
290.50 0.01418
291.00 0.01611
291.50 0.01949
292.00 0.02287
292.50 0.02621
293.00 0.02953
293.50 0.03514
294.00 0.04202
294.50 0.04889
295.00 0.05574
295.50 0.06505
296.00 0.07603
296.50 0.08707
297.00 0.10134
297.50 0.11571
298.00 0.13810
298.50 0.16044
299.00 0.17947
299.50 0.19842
300.00 0.21729
300.50 0.24388
301.00 0.27049
301.50 0.29562
302.00 0.31826
302.50 0.34077
303.00 0.36244
303.50 0.38124
304.00 0.39991
304.50 0.41976
305.00 0.43972
305.50 0.45955
306.00 0.47911
306.50 0.49430
307.00 0.50914
307.50 0.52551
308.00 0.54386
308.50 0.56215
309.00 0.57976
309.50 0.59497
310.00 0.61025
310.50 0.62717
311.00 0.64445
311.50 0.66068
312.00 0.67625
312.50 0.69246
313.00 0.70824
313.50 0.72363
314.00 0.73945
314.50 0.75502
315.00 0.77014
315.50 0.78522
316.00 0.80105
316.50 0.81686
317.00 0.83238
317.50 0.84851
318.00 0.86523
318.50 0.88147
319.00 0.89931
319.50 0.91748
320.00 0.93558
320.50 0.95344
321.00 0.97293
321.50 0.99240
322.00 1.01192
322.50 1.03156
323.00 1.05220
323.50 1.07239
324.00 1.09263
324.50 1.11148
325.00 1.12929
325.50 1.14762
326.00 1.16629
326.50 1.18365
327.00 1.19935
327.50 1.21509
328.00 1.23121
328.50 1.24937
329.00 1.26653
329.50 1.28332
330.00 1.30003
330.50 1.31682
331.00 1.33385
331.50 1.35139
332.00 1.36901
332.50 1.38823
333.00 1.40762
333.50 1.42564
334.00 1.44101
334.50 1.45642
335.00 1.47185
335.50 1.49002
336.00 1.50646
336.50 1.51303
337.00 1.52122
337.50 1.53051
338.00 1.53983
338.50 1.54460
339.00 1.54554
339.50 1.54652
340.00 1.54754
340.50 1.55151
341.00 1.55419
341.50 1.55481
342.00 1.55485
342.50 1.55500
343.00 1.55525
343.50 1.55583
344.00 1.55667
344.50 1.55761
345.00 1.55834
345.50 1.55908
346.00 1.55965
346.50 1.56026
347.00 1.56068
347.50 1.56118
348.00 1.56177
348.50 1.56038
349.00 1.55886
349.50 1.55745
350.00 1.55677
350.50 1.55622
351.00 1.55504
351.50 1.55329
352.00 1.55167
352.50 1.55077
353.00 1.55049
353.50 1.55034
354.00 1.55045
354.50 1.55068
355.00 1.55113
355.50 1.55177
356.00 1.55264
356.50 1.55466
357.00 1.55631
357.50 1.55744
358.00 1.55869
358.50 1.56013
359.00 1.56107
359.50 1.56212
360.00 1.56327
